! Center RA: 03 36 47.26082,  Dec: +00 35 13.68586 (2000.0)
! Established model.
! Flux (Jy) Radius (mas)  Theta (deg)  Major FWHM (mas)  Axial ratio   Phi (deg) T \
! Freq (Hz)     SpecIndex
0.00959735      0.00000      0.00000 
0.000814844    0.0125000      0.00000 
0.000629505    0.0279509      26.5651 
0.000203146    0.0279509     -153.435 
0.000150558     0.388306     -146.821 
0.000265016     0.111803      26.5651 
7.10264e-05     0.201556     -150.255 
6.94898e-05     0.395285      34.6952 
0.000135468     0.422973     -145.840 
0.000247400     0.430116      35.5377 
6.45155e-05     0.128695     -150.945 
0.000123557     0.440348     -145.408 
0.000212017    0.0838525      26.5651 
0.000348964    0.0838525     -153.435 
0.000267194     0.457746     -145.008 
0.000160981     0.447563      35.9097 
0.000182173     0.465027      36.2538 
-0.000228739     0.458598      162.553 
0.000173051     0.111803     -153.435 
-0.000592810     0.450694     -19.4400 
4.65275e-05     0.485412     -145.491 
9.08979e-05    0.0559017      26.5651 
0.000196688     0.475164     -144.638 
0.000447235    0.0559017     -153.435 
-0.000324425     0.467039      164.476 
7.87081e-05    0.0673146      21.8014 
0.000156288      1.04672      139.844 
0.000138872     0.455007      37.1847 
0.000454179      1.05631      140.281 
-0.000923645     0.455007      164.055 
0.000253254      1.08412      110.943 
9.09113e-05     0.465027     -143.746 
0.000101458     0.445112      38.1572 
-2.77691e-05     0.438926     -19.9831 
7.94727e-05     0.672797      144.834 
-0.000171219     0.446689     -17.9279 
5.12903e-05     0.455007     -142.815 
2.36814e-05     0.727367      70.9423 
6.56856e-05     0.445112     -141.843 
2.25376e-05      1.08174      112.416 
9.93260e-05     0.686477      146.889 
2.14079e-05     0.704006      73.4956 
5.94490e-05     0.435352      39.1737 
-0.000295791     0.434813     -18.4349 
6.03580e-05      1.07703      111.801 
6.02961e-05      1.03599      138.424 
3.68677e-05     0.707659      72.5252 
3.74335e-05     0.435352     -140.826 
2.12296e-05      1.02668      137.961 
5.19097e-05      1.07507      113.286 
1.79755e-05      1.02591      136.975 
4.53777e-05     0.696980      147.450 
3.43798e-05     0.417769      51.0725 
1.96353e-05      1.01681      136.494 
3.31939e-05     0.425735     -139.764 
3.27692e-05      1.00763      135.000 
-0.000172930      5.31256    -0.269625 
0.000148697      1.21308     -178.229 
-0.000227331      3.90932      173.943 
0.000118663      1.16277      1.23198 
0.000110118     0.665676     -145.713 
4.79154e-05     0.773082     -112.834 
6.88707e-05     0.676041     -146.310 
-7.60210e-05      3.88446     -6.09586 
5.53971e-05      1.17527      1.21888 
-9.73198e-05      5.35001      179.866 
4.31433e-05     0.648315      33.9965 
1.47205e-05     0.794512     -114.146 
4.83617e-06      1.22557     -178.247 
0.000201356     0.718179      148.523 
7.31032e-05     0.799707     -114.963 
2.11193e-05     0.707549      147.995 
1.76537e-05     0.739193      71.2587 
1.72348e-05     0.722517      149.886 
2.15204e-05      3.35329     -5.56183 
2.88867e-05     0.637990      34.6242 
4.25838e-05     0.743303      70.3462 
6.82508e-05      3.34208     -5.79589 
1.21058e-05      3.07665      168.279 
4.03490e-06      3.38944      174.710 
-2.02405e-05      3.88581     -6.27913 
0.000226635      3.37817      174.479 
-1.11428e-05      5.32506    -0.268992 
1.12071e-05      3.05476      167.954 
2.91875e-05     0.665676      34.2869 
5.64467e-05     0.821774     -116.175 
-7.05230e-05      3.87339     -6.29935 
-6.91447e-05     0.422973     -18.9704 
7.25396e-06      1.10128      116.274 
5.22638e-05     0.693384     -33.9765 
4.92113e-05      2.20231      137.070 
2.63923e-05     0.974840     -49.1596 
1.27540e-05      3.06699      168.003 
-3.52141e-06      5.99725      13.2542 
2.64589e-05      1.10687      116.854 
-2.51870e-05      5.99440      13.1379 
5.63700e-05      5.60503      177.572 
3.18423e-05     0.655386      34.9025 
5.00105e-05      3.33094     -6.03151 
-3.20271e-05      3.01258     -174.763 
1.22261e-05     0.747600      69.4440 
-9.28819e-06      6.42151      14.6584 
9.60842e-06     0.693384     -146.023 
4.27178e-05     0.683054     -145.437 
6.58998e-05     0.707549     -32.0054 
-1.65727e-05      5.36251      179.866 
8.96898e-06      1.11257      117.429 
1.68990e-05      1.57346      128.873 
1.39741e-05     0.976281     -50.1944 
1.67170e-05     0.645174      35.5377 
1.79639e-05      2.18464      137.087 
1.06882e-05     0.752080      68.5523 
4.97101e-05      3.31985     -6.26872 
2.80539e-06      1.10736      118.301 
-1.04213e-05      6.43360      14.6302 
3.81986e-05      2.28682     -27.6856 
1.54072e-05     0.844190     -117.324 
7.99113e-06      1.11334      118.867 
3.05607e-05      4.94047      145.827 
-2.13885e-05      5.98223      13.1651 
1.78963e-05      1.10637     -57.9260 
5.19902e-06      3.07921      168.051 
1.27264e-05     0.635044      36.1932 
-2.74369e-05      3.89824      173.741 
2.42175e-05      5.56812     -2.57336 
-5.12384e-06      6.05248     -167.112 
7.14013e-05      5.59309      177.438 
-4.99829e-06      5.33756    -0.268362 
1.19681e-05      1.56375      129.161 
3.00597e-05     0.672797     -144.834 
-9.94313e-06      1.92719      7.07892 
2.52536e-06      1.93043     -29.0546 
2.52102e-06      2.16698      137.104 
9.42435e-06     0.968327     -50.7626 
-7.37090e-06      4.95210     -164.631 
2.24827e-05      5.04791      130.078 
-1.78947e-05      3.00013     -174.741 
7.23848e-06      2.34804      154.117 
-1.55327e-05      6.04970     -167.227 
4.79359e-06     0.756741      67.6713 
1.14288e-05      1.94137     -28.8754 
4.74749e-06      3.24692      170.248 
2.49945e-05     0.662618      35.7890 
2.39634e-06      1.11943      119.427 
-5.38191e-05      1.93960      7.03342 
3.02364e-05     0.718179     -31.4768 
-1.79116e-05      2.71259      170.451 
-9.09777e-06      4.96747     -164.530 
8.99855e-06      1.11306     -57.3808 
-1.39266e-05      6.12113     -3.04354 
1.11895e-05      2.33680      153.983 
4.58501e-06      4.94383      146.029 
4.56695e-06     0.861050     -117.681 
8.87593e-06      3.23675      169.992 
-1.26077e-05      3.42363      9.66867 
-6.31094e-06      6.44570      14.6022 
2.24452e-06     0.773082      67.1663 
1.69546e-05      4.93346      145.948 
2.21378e-06      2.27576     -27.8318 
8.47817e-06     0.866927     -118.413 
4.33521e-06      2.21084      136.833 
2.59003e-05      5.58060     -2.56760 
8.36660e-06      1.55408      129.452 
-2.16415e-06      5.45622     -162.810 
6.17047e-06     0.778018      66.3179 
1.03950e-05      2.29265     -27.9622 
2.27558e-05      3.33228     -6.24525 
1.61602e-05      4.89287     -34.9081 
2.14093e-06      1.00778      136.005 
4.22647e-06      1.10255     -57.0306 
-2.13167e-05      5.46816     -162.849 
1.40693e-05      2.32557      153.848 
-6.04171e-06      4.97952     -164.568 
4.15313e-06      3.25924      170.285 
6.10994e-06      2.17694     -47.7927 
-5.22966e-05      2.72491      170.494 
-2.11629e-05      4.59934      38.4896 
1.92627e-05     0.652519      36.4309 
3.91535e-06     0.970261     -51.8013 
1.36661e-05     0.662618     -144.211 
1.15194e-05     0.728869      149.036 
1.16158e-05      1.11985     -56.8421 
-2.90754e-05      4.72077     -142.098 
1.50804e-05      2.28162     -28.1094 
3.95315e-06      2.29350      61.3397 
9.48363e-06      3.24906      170.030 
2.08632e-05      5.05748      129.987 
1.47507e-05     0.883883     -118.740 
1.96578e-06      4.93685      146.149 
3.48077e-05     0.728869     -30.9638 
7.59607e-06      1.54445      129.746 
9.36466e-06      4.92648      146.068 
7.31988e-06      2.17787     -48.2572 
-4.16667e-05      1.92719     -172.921 
1.09993e-05      2.29952      61.0664 
-3.68446e-06      2.98768     -174.719 
-1.05866e-05      3.41131      9.70393 
2.30589e-05      2.31436      153.712 
1.86769e-06     0.998827      134.493 
1.71017e-05      4.88262     -34.9920 
3.62823e-06     0.783123      65.4804 
-1.69610e-05      5.00066      175.843 
2.18501e-05     0.700446     -145.176 
-1.24839e-05      3.91066      173.761 
1.80138e-06      2.17615      137.328 
1.52054e-05      4.43424     -7.12502 
5.28106e-06      1.53486      130.045 
1.78526e-06      4.92990      146.270 
6.85776e-06      1.12673     -56.3099 
1.01045e-05      3.26137      170.068 
-1.77175e-06      6.46095      14.6815 
6.60524e-06     0.962581     -52.3860 
8.49843e-06      4.91951      146.189 
-1.47678e-05      5.48011     -162.888 
1.32254e-05      2.28753     -28.3856 
-6.74772e-06      4.58956      38.5867 
1.46811e-05     0.642505      37.0928 
3.69074e-05      5.56869     -2.70184 
9.77668e-06      2.31652      60.9454 
1.69878e-06     0.799707      65.0372 
-6.57714e-06      5.50768      17.1601 
4.95886e-06      1.52531      130.347 
3.35453e-06     0.894864     -118.355 
3.31378e-06      2.17895     -48.7213 
1.39956e-05      2.30316      153.574 
1.66583e-06      2.15849      137.347 
-1.25013e-05      4.58177      38.4645 
-1.64551e-06      6.47304      14.6535 
1.53582e-05      4.65136     -60.5416 
7.66277e-06      5.36063      125.988 
-3.13441e-06      2.96166     -174.915 
6.29919e-06     0.900868     -119.055 
3.30944e-05      8.19318      132.403 
7.81417e-06      4.91256      146.310 
-7.65456e-06      3.39899      9.73945 
7.45466e-06     0.805062      64.2307 
1.60495e-06      1.14407     -56.1363 
-2.51999e-05      4.72845     -141.979 
-1.59484e-06      4.99490     -164.468 
4.64776e-06      1.50769      130.292 
9.08870e-06      3.27369      170.106 
-8.98414e-06      5.51962      17.1218 
4.51294e-06      4.68405      119.233 
1.56758e-06      2.56625     -47.7639 
4.29323e-06      3.33366     -6.45882 
2.96477e-06     0.990581      132.955 
-1.90371e-05      3.50849      33.5202 
1.42730e-05      4.44665     -7.10504 
7.26824e-06      4.67314      119.308 
-1.53978e-06      6.10933     -3.16682 
1.29678e-05      2.57467     -47.5579 
1.14580e-05      4.87239     -35.0763 
1.53150e-06      2.18017     -49.1849 
3.02432e-06      1.15109     -55.6197 
3.03624e-06     0.714252     -32.8557 
7.41301e-06      4.67667     -178.468 
1.49549e-05      2.30448     -28.5112 
-8.75371e-06      5.49205     -162.926 
1.83245e-05      2.33352      60.8262 
1.66053e-05     0.738453     -146.041 
1.50139e-06      5.06552      130.095 
2.96857e-06     0.905884     -117.979 
-2.95125e-06      5.45289      6.97840 
-1.11874e-05      1.95200      6.98849 
1.00593e-05     0.703784     -33.4078 
1.34420e-05     0.632579      37.7757 
8.47394e-06      4.90564      146.431 
8.27310e-06     0.955003     -52.9801 
1.10640e-05      4.04848      167.337 
4.28953e-06      1.49007      130.236 
1.44822e-06      2.15004      137.592 
5.59302e-06     0.916941     -117.613 
-2.06439e-05      4.57199      38.5620 
4.15948e-06      3.31108     -8.46659 
8.28071e-06      4.66418     -178.464 
2.79093e-06      1.42752     -52.8291 
9.52446e-06      4.65752     -60.4077 
-9.03864e-06      5.44049      6.99439 
4.14168e-06      5.08314      130.112 
-6.64144e-06     0.479094      164.876 
-1.39992e-06      2.94921     -174.894 
5.39979e-06      3.28600      170.144 
-1.39602e-06      5.02234     -164.407 
1.12969e-05      5.35053      126.067 
1.63223e-05      4.05066      169.869 
-7.90059e-06      5.53157      17.0837 
-3.93027e-06      3.38667      9.77522 
7.51192e-06      4.67796      119.099 
-1.04425e-05      5.51962     -162.878 
-3.24611e-05      2.72701      170.235 
1.13744e-05      4.13931     -49.2861 
-1.35518e-06      2.95682      83.4458 
5.10949e-06     0.821774      63.8247 
9.75785e-06      5.59366      177.310 
6.04141e-06     0.982106      132.421 
-2.57879e-05      2.96924      83.4734 
1.33652e-06      2.18153     -49.6480 
5.14201e-06      1.41758     -52.5238 
6.34850e-06      2.61779     -46.9349 
3.89006e-06     0.928036     -117.255 
2.62089e-06      1.47246      130.179 
-1.45358e-05      3.92309      173.781 
8.94796e-06      4.65168     -178.460 
5.09637e-06      2.60927     -47.1355 
1.50203e-05      4.86216     -35.1610 
5.07385e-06      4.89874      146.553 
-8.92201e-06      1.68101      163.586 
3.82266e-06      3.31295     -8.68042 
2.57230e-06      3.39913     -77.0370 
1.43516e-05      4.44821     -7.26481 
-1.29068e-06      5.93676     -116.511 
6.03991e-06      5.07509      130.004 
-1.33519e-05      5.01404      175.711 
6.29572e-06     0.683054     -34.5625 
1.33345e-05      3.40195     -76.8318 
-1.28393e-06      5.03775     -164.308 
-3.80345e-05      5.93119     -116.403 
-1.27587e-06      2.93676     -174.872 
-5.00613e-06      1.70853     -16.5788 
1.34054e-05      4.66225     -60.6171 
4.91942e-06      6.88550     -29.5901 
4.96436e-06      3.27586      169.891 
-4.75446e-06      3.89824     -6.25904 
1.10915e-05      4.66704      119.174 
5.96842e-06      1.46442      129.806 
1.24840e-06      1.19301     -54.8113 
2.38403e-06     0.937500     -53.1301 
-1.23869e-06      6.09685     -3.17331 
2.35587e-06      2.17694      137.793 
-4.75936e-06      5.54352      17.0457 
8.30732e-06      4.63918     -178.456 
4.81443e-06     0.672797     -35.1664 
1.40743e-05      2.33111      153.572 
-1.50351e-05      1.69300      163.706 
7.45145e-06      4.03628      167.298 
1.29844e-05     0.776611     -146.821 
-1.04699e-05      1.72051     -16.4600 
-1.21771e-06      6.04423     -167.458 
-1.21592e-06      5.04114     -164.172 
4.72150e-06      5.38612     -61.5912 
2.39315e-06     0.933575     -116.222 
5.81750e-06      3.32345     -8.43486 
1.20867e-06      3.40188      174.729 
7.64152e-06     0.947530     -53.5836 
-8.08476e-06      5.54720     -162.831 
1.20345e-06      2.28035     -52.1250 
3.49289e-06      1.40768     -52.2143 
3.55563e-06      2.65259     -46.5275 
4.58896e-06      4.88832      146.472 
4.62001e-06      3.06281      167.268 
-1.43581e-05      4.40348     -133.390 
4.53387e-06      3.28817      169.929 
2.52979e-05      5.58118     -2.69579 
1.10356e-05      8.25555      135.245 
2.10234e-05     0.640312     -38.6598 
1.71421e-05      8.20161      132.468 
-1.06249e-05      3.51541      33.6901 
-1.40664e-05      1.91479     -172.875 
3.40990e-06      2.29023     -52.3170 
-2.31619e-06      3.81809     -26.6489 
1.04378e-05      6.89638     -29.5388 
3.41320e-06      2.66121     -46.3322 
-1.15231e-06      5.05659     -164.074 
-1.14887e-06      3.37435      9.81126 
2.63542e-06     0.944805     -115.887 
9.87228e-06      4.62669     -178.452 
-6.59676e-06      4.56223      38.6598 
3.31062e-05      6.11596     -55.6603 
-3.33254e-06      5.54720      17.1692 
-1.87898e-05      3.81250     -26.4810 
1.03478e-05      4.16511     -49.1376 
-1.14342e-05      7.09204     -151.583 
-1.13027e-06      2.92431     -174.850 
4.42598e-06      3.40482     -76.6270 
4.35552e-06      2.29952     -28.9336 
-4.35695e-06      5.42808      7.01046 
3.28852e-06     0.660019      37.3039 
3.29977e-06      2.48395      130.101 
-2.21618e-06      5.41503     -137.620 
1.33002e-05      4.04058      169.663 
2.20240e-06      3.32531     -8.64791 
4.19519e-06      1.02416     -109.983 
-1.11396e-06      5.07204     -163.977 
6.29153e-06      1.44682      129.742 
3.28389e-06      4.46061     -7.24451 
-8.09427e-06      3.91066     -6.23907 
-2.78243e-05      2.98166      83.5007 
2.19034e-06      3.07500      167.320 
1.01760e-05      7.88497      141.695 
-1.02786e-05      3.93552      173.800 
5.26651e-06      2.69621     -45.9392 
-7.46246e-06      1.73606     -16.7388 
1.10728e-05      2.35053      60.7086 
-5.30985e-06      5.57478     -162.784 
4.13043e-06      5.33306      126.037 
-4.12356e-06      3.35992      9.63754 
1.11588e-05      2.28261     -52.5653 
-9.37825e-06      1.70500      163.824 
4.20313e-06      4.67189      118.965 
-1.01450e-05      3.09379     -134.345 
5.73925e-06      1.39014     -52.3058 
2.11147e-06      1.13750      90.0000 
-2.95218e-05      6.41260     -7.16658 
-2.12710e-06      5.08752     -163.881 
4.09197e-06      4.88142      146.595 
-4.15041e-06      5.55914      17.1311 
-6.97322e-06      4.16017      78.3862 
-3.12034e-06      4.55443      38.5370 
-1.06395e-06      5.42427     -137.709 
1.23722e-05      3.39266     -76.5782 
1.29676e-05      4.44981     -7.42447 
3.13160e-06      3.05340      166.988 
-2.73504e-05      2.73933      170.280 
1.06063e-06      2.19460      137.770 
1.05637e-06      5.06707      129.896 
2.07410e-06      3.33581     -8.40337 
3.11757e-06      3.30047      169.967 
4.98633e-05      8.41020      139.159 
-3.07561e-06     0.443001     -16.3895 
1.00207e-05      4.61455     -178.293 
3.05156e-06      2.49202      130.321 
3.00448e-06      5.60615      177.316 
-2.05839e-06      5.09100     -163.745 
1.41328e-05     0.670005      36.6561 
-2.05213e-06      3.59063     -35.7927 
-1.02806e-06      5.43898      6.86369 
-1.02823e-06      5.43352     -137.797 
-1.02635e-06      1.96441      6.94413 
1.02476e-06      2.20387      137.989 
6.93570e-06      5.30013     -13.0858 
4.58837e-06      5.38019     -61.7083 
2.94256e-06      6.03724      135.587 
4.26139e-06      5.23358      161.479 
2.63235e-06      1.37261     -52.3996 
-7.79499e-06      1.74803     -16.6208 
1.01217e-06      2.29470     -29.3578 
-2.98781e-06      5.60236     -162.737 
-3.88915e-06      5.42657      6.87946 
8.46558e-06      1.15007      89.3772 
2.93734e-06      7.48640     -54.2399 
9.62790e-06      8.36184     -41.2423 
5.82853e-06      3.29037      169.715 
-7.66308e-06      4.54466      38.6352 
8.30760e-06      8.26443      135.306 
-8.57925e-06      3.60078     -35.6764 
-3.89495e-06      3.61691     -99.9506 
2.97782e-06      3.80536     -164.959 
6.65133e-06      7.76982     -38.2711 
2.91310e-06     0.930054     -53.7462 
1.97612e-06      5.22172      161.435 
-2.93660e-06      5.10651     -163.650 
1.96118e-06      2.22152      137.965 
-9.90215e-07      5.45301     -138.159 
-7.66894e-06      1.71701      163.940 
4.70875e-06      3.06559      167.040 
1.94470e-06      4.85195     -35.2460 
-2.91793e-06      2.74957     -9.41950 
-4.72053e-06      5.57109      17.0933 
4.54505e-06      1.43886      129.359 
2.00016e-05      3.81744     -165.008 
3.76913e-06      2.50013      130.539 
1.92099e-06      2.70491     -45.7489 
-9.72110e-07     0.500312      167.005 
-3.79609e-06      5.61801     -162.654 
-9.62164e-07      5.47272     -138.519 
1.89056e-06      3.33766     -8.61565 
6.47364e-06      4.60205     -178.288 
4.59759e-06      5.21776      161.565 
-2.81156e-06      8.35324     -139.613 
1.90391e-06      6.38957     -123.348 
9.55120e-07      5.30298     -13.2173 
1.86761e-06      4.66096      119.040 
-9.49000e-07      5.51277     -139.230 
-6.19353e-06      3.34760      9.67336 
9.46021e-07      5.38101      121.512 
1.88228e-06      2.24847      138.155 
9.43933e-07      4.66704     -60.8262 
-1.22578e-05      2.76191     -9.37706 
-4.51016e-06      5.26618     -98.1878 
9.41123e-07      5.79838     -45.3494 
-9.39228e-07      5.12203     -163.555 
-1.21235e-05      3.06739     -134.174 
4.56563e-06      5.31515     -13.1865 
2.76611e-06      5.37449      121.398 
-4.48116e-06      3.94794      173.820 
-4.58997e-06      6.80379     -37.9858 
-9.33891e-07      5.54263     -139.665 
3.63203e-06      4.85497     -35.0404 
-1.15857e-05      7.08702     -151.446 
6.29833e-06      6.39645     -123.442 
8.96127e-06      4.46220     -7.40373 
1.83271e-06      4.87455      146.717 
2.73689e-06      2.71365     -45.5599 
-4.41860e-06      5.11004     -163.516 
-8.55479e-06      3.62922     -99.9165 
-1.80727e-06      1.99076      7.21426 
-1.83859e-06      5.55217     -139.748 
-2.37025e-05      7.04561      62.0710 
-4.31399e-06      3.79574     -26.3963 
9.22280e-07     0.922717     -54.3721 
-7.91140e-06      1.76002     -16.5044 
-6.24530e-06      1.73250      163.657 
-9.20294e-07      6.12561     -77.2683 
7.95176e-06      6.67333      37.7714 
6.15069e-06      3.30267      169.753 
-3.58723e-06      5.63367     -162.570 
9.15891e-07      1.03176     -109.093 
-1.80485e-06      5.13227      84.9698 
2.61260e-06      4.66096     -60.9603 
1.81541e-06      2.26612      138.130 
6.91735e-06      3.36438      1.91624 
5.85757e-06      4.17330     -49.0078 
-2.60728e-06      5.41416      6.89531 
-1.80465e-06      3.80694     -26.3126 
1.70892e-06     0.991369      131.934 
5.99026e-06     0.630600     -39.3693 
-3.49042e-06      3.53275      33.7463 
2.62971e-06      5.60675      177.189 
2.52399e-06      5.78961     -45.4374 
-1.14236e-05      8.34514     -139.678 
-4.36331e-06      6.12287     -77.3824 
9.69774e-06      7.87517      141.638 
4.36768e-06      4.65613      119.249 
-1.78988e-06      5.57281     -140.096 
1.31229e-05      8.37948     -41.2502 
9.00896e-07     0.905280     -54.5543 
1.11323e-05      2.34231      153.708 
4.27904e-06      2.35667      60.4436 
8.97252e-07      8.80492      133.965 
3.25579e-06      6.14949     -50.9400 
-6.46123e-06      3.92309     -6.21923 
-8.95571e-07     0.512500      167.320 
1.76579e-06      2.50827      130.756 
-3.52515e-06      6.81365     -37.9211 
-2.62310e-06      4.53490      38.7338 
5.06630e-06     0.804383     -147.051 
1.76874e-06      5.37036      121.581 
-1.74837e-06      4.16271      78.2177 
-5.15252e-06      3.61094     -35.5607 
8.89419e-07      2.27545      138.340 
6.06375e-06      4.58956     -178.283 
8.87719e-07      4.02828      169.632 
1.76901e-06     0.898088     -55.2040 
1.72318e-06      3.34818     -8.37211 
1.75186e-06      2.72242     -45.3720 
8.82018e-07      8.80462      134.080 
5.12242e-06      5.31801     -13.3176 
-1.74595e-06      5.58304      17.0556 
-1.74548e-06      5.58241     -140.178 
3.41424e-06      7.77757     -38.3434 
2.56559e-06      4.86411      146.637 
-3.37623e-06      5.62664     -74.1420 
-4.20366e-06      5.13119      85.1089 
1.70008e-06      5.77170     -31.9002 
1.73803e-06      2.29309      138.315 
-1.68518e-06      5.02651      175.722 
8.69731e-07      5.20590      161.522 
1.70613e-06      3.07777      167.093 
8.68659e-07      6.87934     -29.4995 
2.56931e-06      3.98311      7.39265 
6.52306e-06      8.81332      134.138 
-5.01980e-06      5.64935     -162.487 
1.69006e-06      4.03055      169.457 
2.53789e-06      1.16277      88.7680 
3.24558e-06      1.42127      129.289 
1.70332e-06     0.873660     -56.0826 
1.29961e-05      5.56929     -2.83030 
-8.61820e-07      6.34100     -171.726 
-8.60712e-07      6.83119     -37.9393 
4.89423e-06      5.81477      174.449 
-8.59080e-07      6.38432     -39.5183 
-5.74411e-06      6.35159     -171.854 
-6.62534e-06      1.74450      163.773 
3.32442e-06      4.84475     -35.1252 
9.00878e-06      5.36383      121.468 
-1.35557e-05      6.84105     -37.8750 
8.53168e-07      2.74889     -45.1842 
1.67795e-06      2.50156      130.135 
1.34066e-05      4.45144     -7.58401 
-2.51292e-06      5.59201     -140.260 
1.68730e-06      2.30244      138.521 
6.50919e-06      6.41377     -123.473 
8.48975e-07      1.03961     -108.217 
-4.92694e-06      6.33921     -171.838 
1.68724e-06     0.680074      36.0274 
8.48118e-07      5.80233      174.437 
-3.27159e-06      5.58672      17.1781 
2.46329e-06      4.02409      167.259 
8.45228e-07      6.02832      135.504 
-9.06813e-06      5.26798     -98.3224 
-6.13658e-06      4.39490     -133.271 
-3.86496e-06      4.40997      51.2134 
9.67363e-06      4.57707     -178.279 
-1.65319e-06      4.52709      38.6104 
1.28334e-05      6.67557      37.6209 
6.10001e-06      5.36326     -61.7626 
-4.01745e-06      3.96037      173.840 
4.05111e-06      2.75772     -45.0000 
3.21169e-06      4.64523      119.324 
-8.33709e-07      6.37468     -39.5898 
-8.32565e-07     0.524702      167.619 
-8.32580e-07      2.00316      7.16936 
2.45060e-06     0.849448     -57.0115 
-1.63938e-06      6.12015     -77.4966 
1.65116e-06     0.697540      36.2538 
3.22074e-06      3.31498      169.792 
-3.84831e-06      4.84026      102.529 
-1.22422e-05      2.75165      170.324 
-4.04543e-06      3.71652      123.476 
6.19489e-06      3.38050     -76.5290 
2.37977e-05      3.98474      7.57089 
-1.70515e-05      2.99270      83.7655 
-3.21065e-06      4.23521      37.4449 
-4.79571e-06      1.77200     -16.3895 
3.22361e-06      2.32946      138.698 
4.59972e-06      5.61923      177.195 
-4.71983e-06      6.15687     -156.297 
1.61046e-06      6.86846     -29.5509 
8.19546e-07      5.32296      126.116 
-1.61353e-06      6.46946     -101.028 
-2.39223e-06      3.53971      33.9145 
1.62158e-06     0.693384      146.023 
3.09301e-06      8.27332      135.367 
5.13500e-06      1.04769     -107.354 
2.41535e-06      1.17560      88.1720 
-3.19299e-06      3.62112     -35.4457 
2.41106e-06      5.33306     -13.4174 
1.06185e-05     0.707659      35.6553 
-9.07273e-06     0.728118     -168.111 
1.59321e-05      7.76777     -38.4006 
-1.60326e-06      3.33528      9.70944 
-1.61267e-06      4.55928      73.1052 
2.96305e-06      4.85724      146.760 
-8.06793e-07      5.60163     -140.342 
6.22864e-06      7.04500      115.428 
-8.04558e-07      6.35708     -39.5748 
8.04370e-07      3.29263      169.501 
3.87180e-06      6.09504      127.081 
-1.56803e-06      5.12558     -163.421 
-1.50504e-05      2.76397     -9.63272 
1.52803e-06      3.35876     -8.13010 
-2.27877e-06      5.63866     -74.1767 
-1.56108e-06      6.34745     -39.6467 
-7.28780e-06      5.11768      85.2364 
-6.13949e-06      1.75651      163.887 
-2.34111e-06      3.05870     -134.007 
8.60151e-06     0.793922     -146.560 
-2.34171e-06      4.54732      73.0594 
5.85869e-06     0.683054      145.437 
-7.89380e-07      6.41172     -82.0437 
6.62723e-06     0.610456     -42.5104 
-6.72425e-06      5.66504     -162.405 
1.56604e-06      2.27503     -52.8153 
-1.55731e-06      5.61126     -140.423 
-3.73870e-06      3.79020     -26.2270 
1.60434e-05      6.58893     -74.9355 
1.19335e-05     0.818917     -58.7363 
-2.70877e-05      6.41417     -7.27736 
4.57367e-06      5.33598     -13.5479 
-7.86736e-07      4.51733      38.7093 
-1.55839e-06      6.11746     -77.6109 
5.79145e-06      2.37372      60.3300 
5.88306e-06      4.83453     -35.2105 
-1.37059e-05      3.70964      123.315 
1.51190e-06      2.50964      130.354 
2.94159e-06     0.999766      132.466 
8.20366e-06      7.34759     -30.0109 
6.57446e-06      3.35189      1.92339 
-2.07814e-05      6.34983     -171.966 
-9.34657e-06      2.99408      83.5277 
-7.36459e-06      6.41000     -82.1543 
2.30156e-06      1.18855      87.5890 
-7.77979e-07      5.40175      6.91123 
-9.11454e-06      3.64154     -99.8827 
-5.84948e-06      3.33319      9.49765 
-2.29126e-06      5.50104     -69.7944 
4.27927e-06      1.41338      128.897 
2.19809e-06      4.03355      167.471 
-4.39831e-06      5.59866      17.1403 
-1.52971e-06      5.30938      40.7037 
2.25501e-06      2.31182      138.727 
3.73060e-06      3.30492      169.540 
6.57750e-06      6.42067     -123.566 
-6.35778e-06      1.90238     -172.828 
6.55271e-06      2.76657     -44.8169 
-3.76336e-06      3.63855     -35.4919 
5.07073e-06      5.24940      161.392 
7.44302e-06      4.56457     -178.274 
-3.67018e-06      4.24282      37.5789 
-2.25690e-06      3.54670      34.0821 
7.64735e-07      3.08995      167.144 
-6.53420e-06      4.55098      72.9088 
-3.68341e-06      3.97280      173.859 
1.50116e-06      5.84087      174.350 
-5.11203e-06      1.78400     -16.2763 
7.59456e-07      3.32728      169.830 
3.66975e-06      8.82203      134.196 
3.62431e-06      2.28501     -53.0047 
-7.57428e-07      3.04102     -134.001 
7.55864e-07      4.65136      119.458 
-7.55759e-07      6.11479     -77.7253 
1.20279e-05      5.58178     -2.82396 
2.94998e-06      3.82951     -165.057 
2.20530e-06      2.33887      138.900 
-7.49051e-07      6.16832     -156.344 
2.91085e-06      1.20163      87.0185 
-2.91156e-06      5.91444     -116.348 
-2.21512e-06      6.85859     -37.8933 
-1.46381e-06      6.47186     -101.136 
-1.47051e-06      4.49976      38.6847 
7.45815e-07      4.03285      169.282 
-5.03964e-06      3.03235     -133.831 
-1.46903e-06      6.33783     -39.7188 
-1.45372e-06      4.24514      37.3423 
3.03250e-05      7.03964      115.336 
-2.89595e-06      5.32977      40.3389 
-7.42122e-07      5.62262     -140.684 
-2.14730e-06      5.48499     -69.8719 
6.59943e-06      8.83159      136.090 
2.16259e-06      4.64048      119.534 
-5.72102e-06      5.15961     -74.1118 
-1.27993e-05      6.18478     -156.284 
-1.46488e-06      6.09730     -77.9299 
-4.98086e-06      1.76852      163.999 
6.78329e-06      6.08751      126.988 
7.31493e-07      4.65490     -61.0948 
-2.09499e-06      5.11360     -163.381 
-7.59423e-06      8.33706     -139.743 
1.44308e-06      5.85331      174.362 
1.44194e-06      5.36918     -61.6450 
7.25286e-06      8.39712     -41.2581 
-3.56102e-06      3.64874     -35.3780 
4.22812e-06      5.33892     -13.6784 
-1.66048e-05      6.86846     -37.8293 
-2.14001e-06      3.55372      34.2490 
8.13940e-06      4.74389     -38.2590 
-7.20491e-07      7.09300     -151.357 
-1.41229e-06      5.63230     -140.764 
1.42046e-05      7.88293      141.567 
-1.04604e-05      3.93552     -6.19951 
6.88520e-06      4.42834     -7.78702 
7.59470e-06      4.55208     -178.269 
6.17502e-06      3.82631     -165.237 
4.12447e-06      3.31721      169.579 
-2.12085e-06      6.09470     -78.0448 
-7.12407e-07     0.536918      167.905 
-1.03165e-05      5.31221      110.524 
2.04532e-06      4.20738     -48.7340 
-2.09238e-06      7.09800     -151.494 
1.48313e-05      7.35385     -30.0952 
9.16542e-06      5.63172      177.201 
-1.39848e-06      3.00513      83.7914 
1.39226e-06      3.36259     -76.8936 
-1.39713e-06      3.66252      152.123 
2.06362e-06      5.86575      174.374 
-1.37651e-06      6.32822     -39.7911 
-4.06675e-06      3.98523      173.878 
-1.00937e-05      3.00380      84.0284 
1.36367e-06      6.01012      144.822 
-2.03019e-06      4.38634     -133.152 
5.86554e-06      7.08048     -140.013 
3.29481e-06      1.21482      86.4604 
6.95407e-07      2.32123      138.930 
-1.37563e-06      5.35037      39.9770 
-2.68383e-06     0.715891     -167.905 
7.13130e-06     0.717853      35.0738 
-4.56904e-06      5.90890     -116.240 
-3.39085e-06      3.65894     -35.2646 
1.17586e-05      8.83053      134.369 
-5.81889e-06      5.68074     -162.323 
-1.36926e-06      3.55046      34.5293 
1.34932e-06      8.28222      135.428 
6.89909e-07      7.88997     -47.1829 
-9.05738e-06      2.76397      170.367 
-6.88420e-07      5.38934      6.92722 
-3.38575e-06      3.64563      152.205 
-3.32936e-06      1.79600     -16.1645 
-5.25747e-06      6.40831     -82.2650 
-1.35594e-06      4.48219      38.6598 
-6.85607e-07      6.09212     -78.1598 
-9.73216e-06      6.36047     -172.093 
-6.59452e-06      5.17506     -74.0166 
6.85466e-07      2.34787      153.435 
-1.36174e-06      4.55467      72.7585 
-4.01778e-06      1.78054      164.110 
-7.86863e-06      6.24024      8.29241 
3.78562e-06      4.03520      169.108 
1.35069e-06      6.42759     -123.659 
6.82463e-07      1.99405      82.0731 
-1.95844e-06      3.78469     -26.0573 
1.34600e-06      2.77545     -44.6351 
2.01781e-06      4.94970     -100.771 
-6.80728e-07      6.47429     -101.245 
-3.27628e-06      4.25274      37.4762 
-1.31084e-06      5.03897      175.732 
1.34737e-06      2.34830      139.101 
-3.95516e-06      3.00604     -133.652 
1.32355e-06      5.30550      126.087 
-2.66786e-06      6.08957     -78.2749 
-3.91696e-06      7.10397     -151.406 
3.26995e-06      2.27751     -53.2559 
-5.76574e-06      5.61061      17.1027 
3.25473e-06      2.33670      153.298 
5.59535e-06      4.10208     -10.1799 
6.73935e-07      8.79699     -46.3242 
1.99010e-06      5.35403     -13.7767 
1.33264e-06      3.35978     -77.1012 
-1.33499e-06      3.55756      34.6952 
6.35594e-06      2.75777     -44.6327 
6.71682e-07      4.64666      119.668 
1.06293e-05      4.53958     -178.264 
1.33283e-06      5.26525      161.307 
-1.33496e-06      4.54273      72.7118 
-6.69164e-07      5.63527     -74.2990 
-6.68753e-07      5.64199     -140.845 
3.23224e-06      3.33940      1.93059 
6.68465e-07      3.08058      166.866 
2.15317e-05      8.78836     -46.3831 
-8.58720e-06      5.12911      114.629 
6.67183e-07      4.08977     -10.2109 
2.62142e-06      5.22125      49.3689 
-1.95738e-06      5.37118      39.6178 
3.22452e-06      5.35225     -61.6992 
1.32520e-06      5.43606     -17.3933 
6.64648e-07      4.02135      167.433 
1.63025e-05      5.59366     -2.68977 
5.49335e-06      5.73683      54.5784 
-2.59896e-06      6.31862     -39.8636 
1.31678e-06      6.56202     -68.0770 
3.21822e-06     0.601301     -43.3153 
6.61803e-07      4.69649      115.542 
-6.60822e-07      3.37648     -135.300 
-2.55542e-06      3.32086      9.53323 
6.23497e-06      4.96198     -100.744 
5.41751e-06      6.68548      37.5555 
-3.86457e-06      3.63458      152.113 
6.58996e-07      5.87819      174.386 
-3.85365e-06      3.66915     -35.1519 
-8.00942e-06      4.54646      72.5614 
5.94326e-06      1.39581      128.820 
-4.46075e-06      3.72009      123.209 
4.50821e-06      6.45339     -16.8906 
2.57118e-06      6.43800     -123.598 
-6.54371e-07      3.56469      34.8603 
-6.52359e-07      5.46469     -70.0729 
3.14113e-06      6.02034      144.891 
-8.62120e-06      8.32899     -139.809 
3.14278e-06      5.26125      161.436 
-4.43854e-06      1.79256      164.219 
1.89544e-06      2.35777      139.300 
-1.92588e-06      6.08704     -78.3901 
6.48850e-07      6.10892     -55.7572 
1.23209e-06      4.85040      146.883 
-4.39316e-06      3.99766      173.897 
2.53536e-06      1.36502     -52.8153 
-1.67483e-05      5.89869      64.5210 
1.92249e-06      6.57362     -68.1177 
1.12990e-06      5.43981     -17.5190 
1.26950e-06      3.32951      169.618 
5.54627e-06      4.44072     -7.76517 
-1.28777e-06      3.56162      35.1403 
3.73247e-06      5.34189     -13.8086 
1.27703e-06      3.34209     -77.4712 
-1.27335e-06      3.39416     -135.298 
-1.05940e-05      2.77629     -9.58955 
-1.06915e-05      7.11137      47.1369 
4.32584e-06      3.83840     -165.285 
1.24927e-06      4.70241      115.339 
6.37960e-07      3.47547      175.048 
4.31851e-06      5.21311      49.4732 
4.17079e-06      5.45173     -17.4794 
-6.35936e-07     0.713377     -168.887 
5.25471e-06     0.811249     -146.310 
4.76161e-06      5.35731      121.354 
-1.25987e-06      3.55864      35.4207 
-6.23883e-06      4.37723     -133.264 
-1.25631e-06      3.54207     -107.668 
6.32581e-07      8.05571     -46.6976 
6.31860e-07      2.36755      60.5928 
6.31484e-07      5.90307      174.410 
-8.31504e-06      2.97975     -133.470 
-2.46219e-06      1.80801     -16.0542 
3.88511e-06      1.98167      82.0232 
6.29206e-07      3.30721      169.327 
1.13907e-05      6.46535     -16.8584 
-6.27614e-07      4.45486      38.7351 
-6.27450e-07      6.46448     -101.375 
9.92297e-06      6.57829     -68.0166 
1.24871e-06      4.73616     -38.1402 
-1.84182e-06     0.701115     -168.690 
-1.84904e-06      6.30102     -39.8492 
-6.26476e-07      5.46044     -70.1962 
-1.24624e-06      6.17334     -156.238 
-1.23830e-06      5.35995      39.8911 
-3.06767e-06      6.08453     -78.5054 
2.68627e-06      1.00825      132.990 
-4.25001e-06      5.19053     -73.9219 
6.24125e-07      4.63580      119.745 
-5.46247e-06      6.25261      8.27589 
1.82836e-06      5.18756     -90.2761 
-2.45254e-06      3.62353      152.021 
-3.05618e-06      3.67938     -35.0399 
-6.22237e-07      4.25046      37.7124 
-2.19265e-05      6.34809     -172.077 
3.56729e-06      2.28011     -53.6955 
-5.28975e-06      6.40664     -82.3758 
-1.82816e-06      7.11495     -151.454 
-6.19420e-07      3.55574      35.7016 
6.18660e-07      8.28237      135.550 
6.17887e-07      5.34633     -61.8172 
-1.92474e-05      6.18982     -156.178 
2.43156e-06      6.44492     -123.690 
1.22262e-06      3.33940     -77.6806 
-2.43837e-06      3.32810      41.9552 
6.17421e-07      3.09276      166.919 
1.21308e-06      4.24155     -48.4646 
-3.03911e-06      3.78690      147.674 
-3.51108e-06      3.63140     -100.111 
6.15188e-07      5.91551      174.422 
7.44215e-06      4.73409     -38.3527 
-7.56057e-06      3.71326      123.048 
-8.30285e-06      8.10753     -128.301 
-4.78134e-06      1.80459      164.327 
1.48447e-05      6.58570     -75.0406 
-1.21116e-06      4.43729      38.7102 
1.78981e-06      3.32690      1.93784 
-4.03089e-06      3.54650     -107.222 
6.11270e-07     0.956965     -113.886 
6.11143e-07      6.09859     -55.6911 
-6.10964e-07      6.20126     -156.225 
2.38833e-06      2.32554      153.159 
-1.20705e-06      5.25764      7.51363 
1.78810e-06      3.31950      169.367 
-1.20628e-06      3.55293      35.9829 
-6.08793e-07      3.40305     -135.446 
7.97692e-06      4.04514      169.315 
8.03938e-06      5.64420      177.207 
1.20939e-06     0.592268     -45.8551 
2.95429e-06      2.76668     -44.4509 
1.79846e-06      1.34751     -52.9175 
-6.06006e-07      4.26036      37.6096 
3.93460e-06      6.09750      126.917 
1.71910e-06      4.83756     -35.0041 
-4.68267e-06      5.62256      17.0653 
1.78849e-06      7.07245     -140.091 
3.50331e-06      5.33532     -61.7538 
-6.01547e-07      5.44024     -70.3993 
-6.01147e-07      5.05144      175.743 
-4.08339e-06      4.01009      173.916 
-1.75762e-06      5.88666     -116.075 
-1.19238e-06      2.09314      7.54942 
6.00297e-07      2.37845      60.7407 
3.51228e-06      5.50877     -82.5686 
-1.18551e-06      5.38081      39.5329 
5.64149e-06      7.75798     -38.4580 
-8.52810e-06      2.77629      170.410 
2.35991e-06    0.0250000      180.000 
5.99244e-07      5.29540      126.167 
1.18989e-06     0.842708     -57.7244 
-1.76349e-06      3.77922     -25.8870 
-7.77669e-06      5.69645     -162.241 
-7.94172e-06      6.88600     -37.8476 
-5.96706e-07      3.30854      9.56908 
-2.35676e-06      3.60663      152.103 
-2.35726e-06      2.20755     -143.519 
-2.35806e-06      6.08206     -78.6208 
3.71953e-06      6.14162     -51.0306 
-5.94969e-07      3.68962     -34.9284 
-2.86294e-06      6.29143     -39.9222 
-5.76885e-06      3.79747      147.775 
-4.06176e-06      3.33741      41.8118 
2.91395e-06      5.19549      49.4884 
5.93386e-07     0.945549     -114.193 
5.93216e-07      5.92918      174.313 
2.31885e-06      3.31936     -78.2669 
-5.92525e-07      4.25812      37.8455 
-2.26407e-06      3.42073     -135.444 
1.75016e-06      5.34489     -13.9387 
2.86603e-06      6.03057      144.959 
-1.76200e-06      3.69679     -35.0872 
-5.71875e-06      6.25082      8.16251 
-6.23599e-06      1.81904     -98.2971 
-2.31869e-06      7.11998     -151.590 
1.72515e-06      5.27310      161.479 
1.62462e-05      7.36012     -30.1794 
1.15635e-06      8.09915     -46.5009 
1.72066e-06      3.10494      166.971 
-5.89288e-07      1.88998     -172.781 
4.51450e-06      6.46226     -123.721 
5.94769e-06      8.84027      136.031 
-5.87257e-07      1.82350     -16.3230 
1.16021e-06      2.36726      139.497 
-2.30579e-06      2.10554      7.50473 
1.16133e-06      5.94162      174.325 
1.10194e-05      4.07971     -10.4148 
-5.84848e-07      4.41972      38.6851 
-2.87104e-06      5.20601     -73.8278 
-5.83658e-07      5.23452      7.68506 
2.19570e-06     0.583631     -46.7357 
-5.00653e-06      5.31660      110.651 
1.71427e-06      1.33000     -53.0224 
-7.00354e-06      3.94794     -6.17992 
1.15127e-06      3.85049     -165.332 
3.33140e-06      7.06287     -140.026 
1.71949e-06     0.891014     -55.8641 
-9.80860e-06      8.32093     -139.875 
3.27641e-06     0.939415     -115.201 
-1.13542e-06      3.30648      9.35549 
-5.78825e-07      4.26799      37.7425 
-4.52878e-06      3.70702     -34.9762 
-4.52272e-06      1.81663      164.434 
-5.78475e-07      3.55020      36.2647 
9.61428e-06      4.53922     -178.422 
1.14087e-06      4.69707      115.201 
-9.80179e-06      2.20500     -143.065 
-3.39971e-06      6.06491     -78.8290 
5.76780e-07      2.21885     -30.4655 
-5.76425e-07      5.43191     -70.6477 
5.76268e-07      3.12652      167.297 
-3.33747e-06      1.83550     -16.2134 
-1.76744e-05      6.41576     -7.38809 
1.15843e-05    0.0375000      180.000 
-3.35862e-06      3.59559      152.010 
4.88829e-06      4.95967     -100.602 
2.77126e-06      4.45311     -7.74344 
-1.68604e-06      5.22213      7.70340 
1.12573e-06     0.728118      34.5085 
-1.13201e-06      5.39046      39.4483 
-1.13503e-06      4.40215      38.6598 
2.23462e-06      2.31439      153.020 
-2.24093e-06      4.99651     -3.44222 
2.15287e-06      5.28803      126.057 
2.24986e-06      2.78436     -44.4543 
5.03490e-06      6.46899     -16.9644 
-6.39990e-06      4.53831      72.3635 
-5.37772e-06      7.05147      61.9813 
-6.92251e-06      5.62624      17.1870 
1.68652e-06      4.04747      169.141 
8.40490e-06      5.18738      49.5934 
-2.08789e-06      3.53752      36.6674 
-3.74323e-06      3.85701      47.3641 
1.12789e-06      2.20808     -30.6300 
1.67584e-06      5.95406      174.337 
1.65781e-06      5.08358      162.100 
7.00351e-06      5.50717     -82.6975 
2.75169e-06      5.35702     -13.9065 
5.65517e-07      3.33178      169.407 
1.10681e-06      2.38936      60.8872 
-5.61341e-07      6.46696     -101.484 
5.61224e-07      4.31018     -47.9387 
-2.20631e-06      7.13097     -151.638 
-5.60533e-07      3.79047     -25.8045 
1.66289e-06      5.32941     -61.8722 
1.10272e-06      6.47732     -16.8263 
-2.20997e-06      3.35720      41.2261 
-2.74377e-06      2.11793      7.46057 
-4.34402e-06      4.02251      173.935 
-1.66552e-06      5.22150     -73.7343 
-1.63627e-06      6.38750      48.8879 
1.65091e-06      3.31684     -78.4783 
1.10000e-06      2.34963      139.531 
5.57207e-07      2.19734     -30.7961 
3.57022e-06      8.38888     -41.1940 
-8.74124e-06      4.38458      38.6343 
5.68987e-06      6.77709     -113.018 
-1.10524e-06      3.80805      147.875 
5.54517e-07      3.13872      167.347 
5.54107e-07     0.915492     -55.0080 
-1.09813e-06      5.85902     -115.800 
-5.54254e-07      2.97116     -133.295 
-1.10339e-06      3.42660      129.672 
2.12867e-06      3.31441      1.94515 
-1.09975e-06      5.11775      114.687 
3.61330e-06      2.27273     -53.9495 
-4.28568e-06      6.41738      172.501 
8.41765e-06      3.37613     -178.515 
2.17723e-06      7.66837     -140.888 
-5.84993e-06      6.06250     -78.9449 
-5.33160e-06      3.00252      84.2657 
-1.47609e-05      6.26320      8.14627 
4.58731e-06      5.35082      121.239 
-4.28628e-06      3.71727     -34.8657 
-3.70819e-06      6.40499     -82.4866 
-8.82910e-06      2.95349     -133.285 
-5.31679e-06      1.82868      164.539 
2.14979e-06      1.31250     -53.1301 
-3.64212e-06      7.11988      47.0632 
5.47722e-07      2.18661     -30.9638 
-2.69268e-06      3.41863      129.511 
1.62504e-06      2.79330     -44.2748 
-5.02509e-06      3.80142      148.035 
5.46853e-07     0.940163     -54.1967 
1.08051e-06      3.86258     -165.379 
1.62770e-06      5.96650      174.349 
1.60710e-06      4.00250      167.005 
-1.08838e-06      5.24054     -73.5102 
9.39673e-06      5.60615     -2.68378 
-9.79777e-06      1.82966     -97.8533 
5.45978e-07      1.08000     -106.128 
1.39517e-05      6.48095     -16.9321 
-5.44424e-07      5.41158      39.0939 
-2.13402e-06      5.00826     -3.29088 
4.75612e-06      5.64808      81.6009 
-1.06688e-06     0.583631      170.134 
-1.60093e-06      5.59872     -21.7539 
6.59004e-06      3.97698     -173.322 
5.41604e-07      8.13405     -46.3699 
2.13172e-06      5.31839     -61.8087 
-2.64012e-06      3.70646      122.886 
-1.07930e-06      6.24906     -22.4612 
1.07568e-06      2.17590     -31.1331 
-2.09464e-06      6.28184     -39.9953 
-2.61543e-06      3.36661      41.0859 
-5.11804e-06      3.58456      151.916 
-5.39723e-07      5.20974      7.72183 
-3.10329e-06      3.78504     -25.6342 
-3.69106e-06      3.81203      148.134 
-5.39421e-07      2.78862     -9.54677 
-1.06184e-06      4.36701      38.6086 
7.11547e-06      2.44962      75.8219 
-4.60854e-06      5.69102     -113.975 
2.08150e-06     0.965013     -53.4270 
-1.07042e-06      3.61909     -100.146 
-1.58998e-06      5.23701     -73.6413 
4.04838e-06      6.68779      37.4054 
-2.62073e-06      7.14198     -151.686 
-1.96726e-05      6.33571     -172.062 
2.59683e-06      5.09548      162.143 
-9.19401e-06      6.23751     -22.5050 
-7.20473e-06      6.89588     -37.7839 
-4.63633e-06      2.77840     -9.84372 
5.35090e-07      2.30898      152.603 
-4.53071e-06      5.11255      114.560 
4.60981e-06      6.47960     -123.751 
-4.08786e-06      3.52502      37.0731 
1.53485e-06      4.70309      114.998 
-2.10901e-06      2.13032      7.41691 
-2.58685e-06      3.43841     -135.442 
5.32740e-07      6.04081      145.027 
2.10592e-06      5.97893      174.361 
-5.31728e-07      5.61744     -65.8304 
9.50030e-06      5.64483      177.081 
8.05752e-06      7.67807     -140.947 
-1.05692e-06      5.42128      39.0106 
-1.58038e-06      7.75191      45.4573 
-4.13903e-06      2.78862      170.453 
-2.04549e-06      5.10320      85.5044 
-2.57283e-06      5.18667      7.89577 
-1.05258e-06      5.25608     -73.4182 
5.28516e-07      2.16521     -31.3041 
2.47860e-06      3.29967     -78.8603 
5.02726e-06      6.57530      154.555 
5.27684e-07      3.62810      92.3695 
1.03698e-06      2.33201      139.565 
-5.27087e-07      4.37679      38.5065 
-1.04588e-06      5.62257     -65.7142 
5.27213e-07      5.46742     -17.5650 
-1.03047e-06      1.87758     -172.733 
3.55058e-06      7.77554     -38.4728 
1.55770e-06      2.80226     -44.0964 
1.04407e-06      2.14804     -31.1925 
5.24310e-07      4.85407      147.087 
-5.24357e-07      3.43623      129.539 
2.02782e-06      4.46549     -7.72183 
5.23437e-07      4.31856     -47.8156 
4.48641e-06      3.62864      92.5667 
-2.01274e-06      3.54282     -107.028 
-5.07898e-06      4.03494      173.954 
-3.61675e-06      7.75521     -144.645 
-5.22756e-07      6.08308      41.5847 
-3.49139e-06      1.84751     -16.1051 
1.03739e-06      2.29789      152.459 
5.21944e-07      3.85944     -165.559 
5.22099e-07      4.73207     -38.5653 
-3.05366e-06      5.32102      110.777 
5.21387e-07      8.14268     -46.3062 
-1.53788e-05      6.20631     -156.120 
-3.04032e-06      3.60902     -100.376 
1.02690e-06     0.982503     -53.2759 
1.98418e-06      5.36004     -14.0362 
9.43559e-06      4.58588      23.2806 
-3.48065e-06      6.39573      48.8035 
1.03310e-06      6.39260      82.4720 
-2.55986e-06      3.42828      129.378 
-1.53160e-06      5.61033     -21.7066 
-5.03901e-06      3.72754     -34.7559 
-2.05627e-06      7.76068      45.3915 
5.18261e-07      6.03776      144.862 
1.01289e-06     0.821679     -146.793 
5.17802e-07      4.09201     -10.3831 
3.94764e-06      5.12311      162.096 
-3.53098e-06      6.41903      172.391 
-2.52987e-06      2.14272      7.37377 
-2.02875e-06      5.00756     -3.14810 
2.99887e-06      1.29500     -53.2407 
-2.97466e-06      5.27944      61.7360 
-2.02417e-06      5.44266      38.6598 
-7.44681e-06      3.00130      84.5031 
5.14927e-07      4.72429     -38.4467 
-3.01568e-06      5.25253     -73.5489 
1.53126e-06      2.13735     -31.3660 
5.14129e-07      3.29728     -79.0735 
-4.92545e-06      1.29934      44.6102 
5.12972e-07      4.63292      120.301 
-3.99585e-06      1.84073      164.643 
1.50356e-06      5.31250     -61.9275 
3.97836e-06      5.81298     -89.2607 
-4.43241e-06      5.61634     -65.5455 
5.11041e-07      1.08865     -105.313 
2.95059e-06      6.10750      126.846 
6.39936e-06      5.64992      81.4755 
5.10453e-07      2.93353     -17.3540 
5.11100e-07      5.99137      174.373 
-2.98499e-06      5.70027     -162.121 
1.49876e-06      3.87155     -165.605 
-3.96300e-06      6.06012     -79.0609 
5.08077e-07      4.95738     -100.460 
-5.39558e-06      8.31288     -139.941 
-1.50777e-06      7.15298     -151.733 
5.07794e-07      6.40499      82.4866 
-4.92333e-06      2.21254     -142.806 
-3.99559e-06      7.76541     -144.698 
-1.47859e-06      6.46946     -101.592 
1.48341e-06      5.51600     -125.779 
-3.43765e-06      6.40337     -82.5975 
1.00355e-06      3.99316      166.790 
5.06180e-07      5.45550     -17.6046 
1.99172e-06      2.81125     -43.9191 
-5.05238e-07      7.75178      45.3267 
1.97247e-06      4.72230     -38.6598 
5.04620e-07      6.04799      144.930 
5.04565e-07      6.00381      174.384 
1.97619e-06      5.31075     -105.705 
3.43459e-06      6.40664      82.3758 
3.41702e-06      8.83912      134.542 
-5.03460e-07      3.71696      122.782 
-1.48321e-06      6.27227     -40.0687 
1.47621e-06     0.584434     -48.4682 
-4.88654e-06      7.76058      45.2610 
2.91374e-06      5.30738     -105.575 
9.95809e-07      2.12669     -31.5413 
-4.38612e-06      2.77840      170.156 
2.91690e-06      5.21252     -89.8626 
5.00153e-07      5.26915      161.608 
-3.40607e-06      3.42037      129.216 
1.47298e-06      2.92537     -17.6607 
-1.47978e-06      5.14782     -119.055 
4.38259e-06      6.82693     -158.744 
4.98381e-07      4.86457      147.167 
4.38522e-06      3.36364     -178.509 
6.80752e-06      5.61807     -2.55046 
9.92350e-07      6.00505      174.266 
-1.46304e-06      5.62194     -21.6595 
-2.93662e-06      5.13044      31.7538 
4.96565e-07      2.31439      139.600 
2.91644e-06      5.87293     -158.787 
-4.96312e-07      5.17429      7.91478 
-4.96128e-07      3.71021      122.619 
9.81291e-07      4.62846      120.513 
2.91201e-06      7.89273      141.624 
-1.45395e-06      3.85778      47.6264 
4.93788e-07      8.12501     -46.3090 
-2.91755e-06      2.15512      7.33112 
-9.80556e-07      5.63340     -173.758 
4.92782e-07      2.28682      152.314 
-3.87030e-06      6.90576     -37.7204 
1.46755e-06      2.11605     -31.7184 
-2.91152e-06      6.14747      3.26384 
-1.45248e-06      8.11528     -128.370 
-4.91899e-07      5.00689     -3.00527 
4.91577e-07      4.84066     -34.7981 
-4.91739e-07     0.595950      170.340 
6.27599e-06      6.49290     -16.9000 
-9.76795e-07      7.15891     -151.645 
9.70107e-07     0.836100     -58.4486 
4.90529e-07      5.50559     -82.8266 
-2.89448e-06      4.04738      173.972 
-9.69633e-07      4.53021      72.1650 
-2.89816e-06      6.42069      172.280 
-2.89285e-06      3.73482      112.015 
2.88699e-06      6.58248     -75.1457 
-3.37234e-06      1.83141     -98.2407 
4.88907e-07      4.72077      142.098 
-3.85420e-06      7.76841     -144.827 
-9.73220e-07      5.00400     -2.29061 
-9.64532e-07      7.03457      62.0233 
-2.41207e-06      2.93582     -133.275 
-1.44577e-06      3.59900     -100.607 
9.66269e-07      6.01749      174.278 
-4.87591e-07      4.16788      77.8812 
9.68672e-07      5.75192      170.620 
-9.65375e-07      5.32547      110.902 
-4.86281e-07      4.36867     -133.145 
-9.64827e-07      7.51284     -131.087 
-4.86103e-07      1.86518     -172.684 
-1.44465e-06      3.81158      120.770 
-9.64758e-07      3.99081     -145.464 
4.85903e-07      1.10071     -105.141 
9.59104e-07     0.838991     -146.547 
9.64440e-07      6.50389     -123.873 
-2.40215e-06      6.22597     -22.5491 
-1.92179e-06      3.74493     -34.8040 
-9.63716e-07      3.06413      88.1298 
9.63102e-07      2.82027     -43.7429 
-1.44176e-06      5.15270     -118.866 
-4.84241e-07      3.77965     -25.4633 
1.44080e-06      2.10542     -31.8972 
1.44138e-06      1.20234      86.4237 
-1.43755e-06      3.87107     -101.927 
9.57190e-07      3.98387      166.574 
-1.43490e-06      4.39435      38.5325 
-9.60915e-07      7.16399     -151.780 
-1.43383e-06      3.74009     -133.510 
4.82756e-07     0.738453      33.9591 
9.57865e-07      7.79311     -38.4876 
4.82035e-07      3.88366     -165.651 
9.56024e-07      5.27793      126.137 
-9.59101e-07      5.24900     -73.6798 
-1.43325e-06      1.85279      164.745 
-4.80260e-07      2.79072     -9.79985 
-9.56708e-07      4.99102     -2.15296 
-9.54619e-07      6.05776     -79.1770 
-4.79977e-07      5.16365      8.07126 
4.79685e-07     0.939165     -116.906 
-4.79148e-07      5.10224      85.6444 
4.78151e-07      5.51957     -82.7140 
-4.78114e-07      6.26271     -40.1423 
-4.77751e-07      5.61430      17.2247 
-4.77820e-07      3.57354      151.821 
-4.76788e-07      3.53500      36.9509 
4.76848e-07      4.55172     -178.426 
-4.76846e-07      5.64582     -173.772 
4.76977e-07      1.27751     -53.3544 
4.76729e-07      4.05742      169.348 
-9.49928e-07      7.34134      150.074 
-4.75959e-07      2.15675      7.66048 
-4.75970e-07      5.11981      31.8274 
4.75567e-07      2.92118     -18.2024 
-9.49467e-07      6.15995      3.25722 
-4.75246e-07      3.79094     -25.3821 
4.75080e-07      4.85781      147.291 
-4.75070e-07      4.48861     -110.201 
4.75003e-07      2.09482     -32.0779 
-4.74302e-07      1.85952     -15.9983 
4.75017e-07      2.30489      139.399 
-4.73997e-07      3.05310      87.4187 
