! Center RA: 03 36 47.26056,  Dec: +00 35 13.68246 (2000.0)
! Established model.
! Flux (Jy) Radius (mas)  Theta (deg)  Major FWHM (mas)  Axial ratio   Phi (deg) T \
! Freq (Hz)     SpecIndex
 0.0105872      0.00000      0.00000 
0.000840474    0.0125000     -90.0000 
0.000716816    0.0125000      0.00000 
0.000140810     0.190394     -113.199 
0.000138055     0.107529      54.4623 
0.000266285     0.201944     -111.801 
0.000133742     0.249061      72.4744 
0.000185006    0.0976281      50.1944 
0.000126880     0.269838      76.6075 
0.000244341     0.209538     -107.354 
0.000209194    0.0625000      53.1301 
0.000120842     0.291815      80.1342 
0.000136664    0.0530330      45.0000 
0.000115303     0.289935      82.5686 
0.000113827     0.221501     -106.390 
0.000606137    0.0353553      45.0000 
0.000110091     0.301040      85.2364 
0.000211832     0.230489     -102.529 
0.000105094     0.300260      87.6141 
0.000666515    0.0450694      56.3099 
0.000195953     0.312750      92.2906 
9.86231e-05     0.240442     -98.9726 
9.40482e-05     0.250000     -90.0000 
9.13897e-05     0.330955      100.886 
8.98177e-05     0.304395     -70.8210 
8.74182e-05     0.355756      108.435 
8.59785e-05     0.330009     -65.3764 
0.000708794    0.0279509      63.4349 
8.37524e-05     0.380789      113.199 
8.24173e-05     0.335410     -63.4349 
0.000157271     0.402531      115.769 
0.000154856     0.341184     -61.5571 
7.38584e-05     0.408121      117.350 
0.000142529     0.347311     -59.7436 
0.000138941     0.425000      118.072 
6.69793e-05     0.353774     -57.9946 
6.55135e-05     0.375000      53.1301 
6.42148e-05     0.443882      122.347 
0.000183339     0.360555     -56.3099 
0.000120969     0.454491      121.504 
0.000214503     0.937083      136.081 
5.62999e-05     0.424632      47.3859 
5.52264e-05     0.308727     -121.759 
5.37993e-05     0.472526      127.476 
5.34401e-05     0.375000     -53.1301 
5.09206e-05     0.322587     -125.538 
4.95201e-05     0.480234      128.660 
9.34691e-05     0.382631     -51.6325 
4.76974e-05     0.928120      135.546 
4.74066e-05     0.340037     -126.027 
4.61897e-05     0.390512     -50.1944 
8.97348e-05     0.488141      129.806 
0.000128982     0.936917      135.000 
4.25395e-05     0.365077     -128.047 
4.15904e-05     0.496236      40.9144 
4.10143e-05     0.372911     -129.560 
3.98686e-05     0.415519     -46.2189 
3.95993e-05     0.504511      131.987 
3.88184e-05     0.928120      134.454 
3.81723e-05     0.380994     -131.009 
7.26001e-05     0.433193     -43.8309 
3.72683e-05     0.512957      133.025 
0.000137961     0.937083      133.919 
3.59482e-05     0.390512     -129.806 
3.44656e-05     0.521566      134.029 
3.41491e-05     0.532975      39.2894 
3.37460e-05     0.406971     -132.510 
3.26820e-05     0.442295     -42.7094 
3.23103e-05     0.521566      135.971 
3.17969e-05     0.415519     -133.781 
3.09343e-05     0.451560     -41.6335 
3.06278e-05     0.946127      133.394 
5.91316e-05     0.424264     -135.000 
2.96725e-05     0.552551      37.6476 
2.94619e-05     0.530625      136.909 
5.69151e-05     0.937583      132.839 
0.000126840     0.460977     -40.6013 
2.75768e-05     0.539821      137.816 
7.52894e-05     0.433193     -136.169 
4.99028e-05      1.03116      96.2635 
2.66252e-05     0.562500      36.8699 
7.54400e-05      3.00793     -11.2632 
5.04717e-05     0.946787      132.325 
2.50795e-05     0.549147      138.691 
4.78039e-05     0.442295     -137.291 
9.12221e-05      3.01040     -11.4966 
2.36383e-05     0.558598      139.538 
2.34063e-05     0.580005      37.1169 
4.44916e-05     0.947777      131.257 
0.000196232     0.937083     -46.0809 
2.87641e-05     0.928120     -45.5457 
7.59508e-05     0.903120      131.634 
0.000119442    0.0279509      26.5651 
4.32325e-05      1.06257     -179.326 
3.75420e-05     0.894864      131.035 
3.39069e-05     0.575136      132.357 
4.49925e-05    0.0176777      45.0000 
4.53259e-05     0.912500      131.112 
3.96071e-05     0.981469     -83.4181 
2.10430e-05     0.576222      130.601 
1.05774e-05      3.88557      137.999 
5.35196e-06      1.07507     -179.334 
0.000134727     0.980115     -84.1440 
4.61593e-05      1.07529      1.33222 
4.40468e-05     0.904330      130.515 
4.49963e-05      1.07529     -178.668 
9.97899e-06      3.91252      138.108 
0.000118268      5.85711      173.997 
4.40531e-05     0.833854      66.1247 
1.36569e-05      3.90322      137.986 
4.69667e-06     0.576222      86.2686 
8.80576e-06     0.590815      83.9275 
8.78744e-06     0.583631      133.264 
3.39769e-05     0.913869      130.006 
4.10944e-05     0.928456     -46.6366 
1.71417e-05      5.87464     -5.24962 
2.38372e-05      3.89395      137.862 
8.21449e-05      5.87351     -5.12819 
2.75386e-05      4.10116     -30.3947 
6.57302e-05      5.86825      174.132 
3.04725e-05      3.03245     -11.1710 
1.60653e-05      3.42566     -5.02408 
2.68592e-05     0.905884      129.401 
7.79646e-06     0.592268      134.145 
2.84061e-05      3.42678     -5.23227 
8.64506e-05      3.42459      175.184 
3.78706e-06     0.593980      81.5289 
-6.76877e-05      1.93851     -38.7175 
1.10850e-05     0.919918     -47.2026 
3.70699e-06     0.601041      135.000 
2.68323e-05      3.91160      137.849 
1.09557e-05      3.21736     -40.7462 
1.08558e-05    0.0395285     -108.435 
1.78527e-05      4.08406     -30.3322 
1.39967e-05    0.0707107      45.0000 
1.04999e-05     0.845300      66.4677 
2.76371e-05     0.888292      129.289 
3.36788e-05      1.59300     -108.293 
1.42934e-05      5.87943      174.265 
3.60888e-06      5.88596     -5.11731 
6.74356e-05      3.41550     -5.46021 
1.41366e-05      5.87241     -5.00672 
0.000116389      3.04472     -11.1254 
3.06306e-05      3.22684     -40.6013 
7.07351e-06     0.937583     -47.1611 
6.96516e-06      3.88469      137.739 
1.03335e-05    0.0883884      45.0000 
2.40105e-05      5.89186      174.277 
4.01637e-05      5.88486     -4.99610 
1.69341e-05    0.0559017     -116.565 
-9.37561e-05      4.49475     -173.132 
-3.24797e-05      4.54899      7.26171 
1.64293e-05     0.929129     -47.7263 
1.65479e-05      4.06696     -30.2691 
6.67763e-06     0.609944      134.170 
3.43730e-05      3.21286      159.027 
6.67255e-06     0.627744      35.2724 
-7.10077e-05      1.93071     -38.4281 
2.90436e-05      5.90307      174.410 
6.58184e-06      5.78885     -1.23730 
1.26304e-05     0.637990      34.6242 
-6.84959e-05      1.76511     -15.6110 
1.23509e-05     0.851928      67.5741 
3.21045e-06      3.40427     -5.68966 
2.48090e-05      6.37458     -8.00299 
6.89557e-05      3.23499     -40.7694 
1.23344e-05      5.81359     -1.10881 
3.84563e-05    0.0800391      51.3402 
8.95076e-05      3.41671     -5.66888 
1.23965e-05     0.880430      128.660 
3.17406e-06      5.87133     -4.88520 
1.19391e-05    0.0673146     -111.801 
4.55891e-05     0.618718      135.000 
1.24003e-05      3.08051     -154.267 
1.53660e-05      5.88378     -4.87484 
9.27453e-06      4.04987     -30.2055 
6.14699e-06      5.90187      174.531 
-3.05989e-06      4.73765     -163.286 
1.44865e-05     0.920767     -48.3019 
-1.47408e-05      2.25451     -16.4254 
4.84497e-05      3.40553     -5.89893 
5.08120e-05      5.91431      174.542 
6.00512e-06    0.0838525     -116.565 
2.89093e-05      3.09177     -154.367 
1.73748e-05      1.60488     -108.153 
-8.61142e-06      1.94828     -38.4876 
6.85671e-05      3.41321      174.958 
5.88103e-06      3.90234      137.726 
1.72250e-05     0.645174      35.5377 
-5.88091e-06      4.72568     -163.243 
1.46218e-05      5.88273     -4.75353 
-2.74814e-05      4.53659      7.28167 
3.36030e-05      6.36221     -8.01866 
8.62895e-06      4.03907     -30.2947 
-2.13912e-05      1.70018      162.897 
2.77365e-05      1.02873      94.8793 
1.92272e-05     0.898001      128.784 
2.90599e-06      5.82609     -1.10643 
5.60380e-06     0.847238      68.3556 
1.11857e-05      3.19673      159.156 
2.21995e-05    0.0790569     -108.435 
6.16334e-05      6.39103     -1.90542 
2.62194e-05      3.09768     -154.676 
-6.59367e-05      1.68824      162.773 
1.11252e-05      5.88171     -4.63218 
-1.33057e-05      1.94052     -38.1987 
-5.54544e-06      2.24252     -16.5157 
-1.07112e-05      4.71734     -163.054 
5.44037e-06      3.92926      137.837 
4.96831e-05      3.20841      159.235 
2.70323e-06     0.655386      34.9025 
8.03268e-06      5.89417     -4.62237 
-1.04733e-05      2.22700     -16.2988 
1.31566e-05      3.20322     -150.033 
1.03765e-05     0.912500     -48.8879 
5.30946e-06      1.60103     -107.728 
1.03851e-05      4.02197     -30.2308 
2.65920e-06    0.0637377     -101.310 
5.28949e-06      6.65676      18.8432 
2.30038e-05    0.0760345     -99.4623 
1.50382e-05     0.835632      68.0394 
1.02880e-05     0.652519      36.4309 
5.22541e-06      2.95976      167.314 
7.80259e-06      5.88072     -4.51079 
6.71374e-05      6.64493      18.8780 
-2.61475e-06      1.95808     -38.2599 
-1.27548e-05      1.67631      162.646 
-1.01984e-05      1.89362     -51.1630 
1.00205e-05      6.34983     -8.03440 
0.000158028      2.97471      167.132 
7.40531e-05      6.32863      171.710 
5.05725e-06      5.89318     -4.50124 
4.51284e-05      6.37377     -168.690 
1.91726e-05      3.19240     -149.921 
6.17273e-05      6.39146     -2.01741 
2.78170e-05      5.91313      174.663 
1.37371e-05      3.18615     -150.116 
2.50634e-06      1.61294     -107.592 
2.49344e-06      5.72942     -2.25064 
-1.44181e-05      4.70538     -163.009 
4.91871e-06      4.01118     -30.3207 
-2.59811e-05      1.90148     -50.8696 
7.31815e-06     0.662618      35.7890 
2.46846e-06      5.72992     -2.37554 
-7.07353e-06      2.21501     -16.3895 
2.45432e-06     0.894864     -48.9647 
4.86485e-06      4.65581     -131.953 
2.44462e-06      5.87975     -4.38936 
-9.47840e-06      4.53502      7.12502 
1.63918e-05    0.0750000     -90.0000 
2.42990e-06      5.73046     -2.50041 
1.16860e-05      3.04716     -11.3560 
9.42871e-06      5.73102     -2.62526 
4.75017e-06     0.886707     -49.5739 
4.63624e-06      3.94691      137.824 
7.08912e-06     0.831039      68.8387 
1.15594e-05      3.10898     -154.774 
1.60467e-05      4.64746     -131.838 
9.28728e-06     0.660019      37.3039 
1.56841e-05      6.35159     -8.14605 
-1.36649e-05      1.75308     -15.7209 
4.63549e-06      3.98329     -30.3470 
4.65895e-06      5.89221     -4.38006 
-1.58579e-05      4.82455     -11.6593 
2.32830e-06     0.907779      128.290 
2.32447e-06      1.60920     -107.168 
9.09375e-06     0.607505     -53.3659 
6.80669e-06     0.819394      68.5232 
-8.93793e-06      5.32946      21.7515 
2.28317e-06     0.633690      67.9887 
-2.11961e-05      4.69343     -162.965 
8.43949e-06      5.74409     -2.74410 
-1.52926e-05      4.66292      168.088 
-8.89099e-06      4.72394      13.1537 
1.09104e-05      3.40188      174.729 
-6.72031e-06      1.77570     -144.744 
-6.70394e-06      7.11436      47.7060 
2.25315e-06      3.18159     -149.808 
2.25079e-06      3.27309      22.4515 
-7.05588e-05      1.77878     -145.305 
-8.80318e-06      1.92094     -38.6598 
4.42323e-06     0.794512     -102.724 
1.73861e-05      3.22010      159.314 
8.77464e-06      5.91198      174.784 
4.39882e-06     0.638480      66.9487 
-1.09452e-05      1.90939     -50.5786 
8.71663e-06      2.94751     -143.276 
5.37211e-05      3.40076      174.939 
2.22252e-06      5.74470     -2.86863 
-4.38219e-06      4.52262      7.14466 
6.61334e-06     0.615046     -52.4314 
-2.21990e-06      1.73498     -29.3353 
1.49906e-05      3.25262     -40.7924 
-1.50580e-05      1.74114     -29.6939 
1.27913e-05      3.27991      22.1663 
4.34141e-06     0.632085      65.4623 
-4.36020e-06      7.16856      45.4945 
8.38180e-06      3.96457      137.811 
8.45150e-06    0.0760345     -80.5377 
2.18049e-06      6.37134     -168.800 
8.44979e-06      3.10305     -154.467 
1.89377e-05     0.636396      135.000 
3.50980e-05      6.63311      18.9130 
-2.16649e-06      2.20302     -16.4813 
2.16452e-06      6.38603     -168.712 
8.52128e-06     0.605186     -51.7098 
-1.46819e-05      4.82709     -11.8046 
-1.87341e-05      7.16843      45.3532 
4.25817e-06      6.87965     -59.6611 
-8.44399e-06      4.73611      13.1193 
-1.44747e-05      1.74105     -15.8324 
1.02973e-05      4.63913     -131.723 
2.65438e-05      6.38360     -168.822 
2.13261e-06      6.21281     -179.424 
2.13613e-06     0.622746     -51.5198 
1.39016e-05      2.95754     -143.421 
8.38751e-06     0.637377      64.4400 
2.12837e-06      1.61753     -106.614 
-6.24236e-06      5.31785      21.8014 
1.99118e-05      3.68936     -149.003 
-1.03852e-05      1.91735     -50.2901 
4.21167e-06      3.41433     -5.25140 
-4.18227e-06      2.12250     -164.982 
-3.60910e-06      1.74736     -30.0499 
-1.42679e-05      4.57988     -112.295 
-8.17648e-06      1.91119     -38.8939 
1.43173e-05     0.613010     -50.7928 
6.18544e-06      6.22520     -179.540 
2.09069e-06      3.20400      159.444 
-4.16316e-06      5.01530      167.037 
-2.58093e-05      1.75820     -29.8459 
-9.94965e-06      4.52108      6.98748 
-1.35084e-05      5.26541     -159.285 
1.00452e-05      6.88597     -59.5714 
2.18825e-05      3.21571      159.522 
8.10819e-06     0.642870      63.4349 
-6.52574e-05      4.50716     -173.151 
-2.05430e-06      5.12305     -172.147 
-1.58262e-05      5.04248      166.963 
8.11324e-06      3.42459     -4.81574 
-2.04387e-06      2.04764      18.8774 
-9.98223e-06      2.10167     -164.476 
1.37610e-05      3.28681      21.8823 
3.99976e-06      3.09720     -154.159 
-2.02558e-06      5.10002     -171.969 
-7.91770e-06      2.03991      19.3232 
5.99723e-06      3.26209     -40.6489 
2.02138e-06      3.23180      159.392 
-6.01449e-06      1.92537     -50.0039 
2.01446e-06      3.19081     -150.422 
-1.16355e-05      5.32484      21.6266 
-5.96280e-06      4.84189     -11.9191 
3.98906e-06      5.92558      174.674 
1.17538e-05     0.645295      134.215 
1.99891e-06      3.10846     -154.259 
-9.70780e-06      4.87545     -154.486 
-9.26406e-05      1.76445     -30.1980 
-1.17703e-05      7.16834      45.2119 
1.18077e-05      3.42356     -4.60729 
-1.99060e-06      5.11067     -172.128 
5.89990e-06      6.23761     -179.656 
9.54231e-06      3.95532      137.690 
1.53917e-05     0.603376     -50.0425 
-3.92478e-06      1.90148     -39.1304 
1.97842e-06    0.0637377     -78.6901 
-3.91292e-06      4.58464     -112.440 
-9.70944e-06      1.91581     -49.7636 
-3.90562e-06      4.75113      13.2319 
5.84687e-06     0.648556      62.4472 
5.75385e-06      4.63082     -131.608 
-1.96086e-06      1.87292      27.4202 
1.96125e-06     0.654313      43.4518 
5.76000e-06      6.33921     -8.16206 
1.80684e-05      3.27972     -40.6724 
-1.94767e-06      1.86765      27.9371 
1.94705e-06      5.75782     -2.98664 
1.12768e-05      3.10267     -153.951 
-9.52157e-06      4.84449     -12.0638 
1.70487e-05      6.62128      18.9480 
1.10520e-05      5.92675      174.554 
7.98972e-05      6.60211     -164.517 
-7.48277e-06      1.74450     -16.2274 
9.56487e-06      3.42258     -4.39871 
-1.93134e-06      1.87354      28.2749 
-7.56962e-06      2.09303     -164.055 
3.82638e-06      6.25011     -179.656 
1.95620e-05      6.86886     -59.6085 
-3.81828e-06      5.09828     -172.108 
-1.92221e-06      1.89180     -39.3693 
1.29728e-05      6.39829     -168.734 
-1.48682e-05      4.59145     -112.236 
1.91507e-06     0.654432      61.4769 
3.35619e-05      8.52567     -138.269 
1.91275e-06     0.712610     -105.255 
1.43536e-05     0.620987     -49.8991 
-2.52071e-05      7.15954      45.2829 
-3.79413e-06      1.87458      29.1288 
-3.75045e-06      1.71213      163.020 
2.38539e-05      3.22742      159.600 
1.90492e-06     0.649639      59.9816 
1.11929e-05     0.654074      135.000 
-5.64143e-06      1.89975     -39.6608 
-1.89201e-06      4.76330      13.1975 
-9.28964e-06      1.92390     -49.4795 
1.88692e-06     0.645295      58.4652 
1.11391e-05      3.42165     -4.19001 
7.36873e-06      3.70008     -149.103 
-1.81024e-05      5.03030      166.931 
5.57040e-06     0.648315      56.0035 
1.87989e-06      3.19555     -150.728 
7.36269e-05      6.31626      171.694 
-1.27201e-05      4.78991      20.4685 
1.87241e-06      3.42075     -3.98120 
-3.73353e-06      1.88070      29.4615 
-1.23659e-05      4.51958      6.83019 
2.14794e-05      6.34100     -8.27386 
1.86654e-06      6.25005     -179.771 
-3.64445e-06      7.10775      48.0652 
3.27967e-05      6.60545     -164.412 
-1.86381e-06      4.76617      13.3438 
1.86129e-06     0.676503     -106.091 
-3.68646e-06      5.10897     -172.266 
-1.08096e-05      4.86417     -154.423 
7.29923e-06     0.651920      57.5288 
-9.09146e-06      1.89015     -39.9026 
-3.63366e-06      2.05171      19.2077 
3.66285e-06      3.29379      21.5995 
-1.84499e-06      2.08450     -163.630 
-5.48302e-06      1.88688      29.7920 
7.00521e-05      6.21376      1.15268 
-3.64004e-06      4.84712     -12.2083 
5.45032e-06      6.26255     -179.771 
-3.63326e-06      4.78123      13.4549 
5.50112e-05      6.60173      19.1211 
-3.61732e-06      2.07251     -163.532 
-3.62559e-06      5.31322      21.6763 
-1.43185e-05      1.76852     -145.074 
-3.62844e-06      4.85933     -12.1771 
5.37136e-06      3.40829     -3.99579 
1.82042e-06      4.62253     -131.492 
1.07047e-05     0.662972      134.236 
3.61172e-06     0.664502     -106.390 
6.99404e-06      2.96759     -143.565 
1.23555e-05      3.40744     -3.78611 
-3.60670e-06      1.91442     -49.2364 
1.20394e-05      3.04233     -10.8944 
7.04290e-06      3.94608      137.568 
-1.05507e-05      5.09658     -172.247 
1.79420e-06      3.69582     -148.837 
1.79508e-06     0.655982      59.0362 
-3.56487e-06      1.88232      30.3112 
-1.54798e-05      4.59619     -112.380 
3.53550e-06      4.61541     -131.157 
1.19721e-05    0.0559017      63.4349 
7.00861e-06      3.11391     -154.052 
4.13012e-05      6.08754     -96.3662 
4.78369e-05      3.70652     -148.937 
1.78115e-06     0.658716      56.6115 
-8.73683e-06      4.86199     -12.3211 
8.54372e-06      3.28217      21.6798 
6.95280e-06      6.27501     -179.886 
-1.77532e-06      4.71371     -163.199 
-6.97285e-06      2.06413     -163.101 
-3.53523e-06      1.88058     -40.1469 
-6.99708e-06      1.92260     -48.9542 
8.72930e-06     0.662500      58.1092 
1.51292e-05     0.671751      135.000 
-1.76039e-06      4.81737      13.9641 
-6.89524e-06      4.49618      24.9976 
-5.21541e-06      1.88866      30.6386 
-5.18790e-06      5.32024      21.5014 
1.75757e-06      3.24350      159.470 
-5.16442e-06      4.85290     -154.359 
-2.51863e-05      1.77170     -145.637 
-1.74560e-06      4.79728      20.2765 
2.66113e-05      3.25521      159.547 
1.74252e-06      6.41055     -168.756 
1.18370e-05      3.38831      174.920 
-1.73813e-06      1.76002     -16.5044 
-3.45478e-06      4.81437      13.8198 
-3.43685e-06      7.09941      48.1403 
-2.48042e-05      5.01812      166.898 
-8.49009e-06      1.87104     -40.3937 
1.72816e-06     0.652519     -106.699 
5.12787e-06      3.39340     -3.37885 
-6.77146e-06      4.78556      20.3283 
-1.71922e-06      1.78754      163.339 
1.49462e-05      5.92795      174.434 
-8.30557e-06      5.26984     -159.158 
8.42672e-06     0.669188      57.2005 
9.89999e-06      6.41300     -168.646 
-1.70837e-06      2.06352      19.0935 
-1.16653e-05      5.09491     -172.387 
8.95340e-05      6.21352      1.03744 
-1.16757e-05      4.86467     -12.4649 
-6.73519e-06      1.93084     -48.6745 
1.70158e-06      3.37953     -2.96823 
-5.04474e-06      1.88435      31.1593 
3.37411e-06     0.638602     -49.7636 
6.72740e-06      6.32863     -8.29015 
3.34225e-06      4.60720     -131.040 
-6.65973e-06      4.84770      14.1796 
-6.56851e-06      1.86153     -40.6430 
1.69255e-06     0.644326     -108.083 
-6.64898e-06      2.05586     -162.667 
1.68798e-06     0.673146      58.6713 
4.99021e-06     0.680648      134.256 
9.60277e-06      3.11939     -153.846 
-1.68552e-06      1.77200     -16.3895 
-2.21409e-05      5.31154      67.2972 
3.33938e-06      3.36642     -2.76679 
-2.07575e-05      4.55633     -154.138 
-6.63286e-06      7.15075      45.3541 
-4.98759e-06      4.49627     -172.974 
4.92989e-06      3.93687      137.445 
1.67256e-06      3.38020     -3.17983 
4.95089e-06      6.28750      180.000 
1.66338e-06      3.31401     -1.72916 
1.66029e-06     0.648195     -50.4774 
-4.90474e-06      4.50148      25.1418 
-8.10458e-06      4.79296      20.1363 
1.65070e-06      3.17648     -151.821 
1.76049e-05     0.679729      57.7712 
1.44552e-05      6.34281     -8.38560 
4.89433e-06      8.21368     -140.496 
1.64718e-06      3.30116     -1.51885 
-4.88672e-06      1.92147     -48.4284 
-8.03527e-06      7.15067      45.2125 
1.64078e-06     0.632456     -108.435 
4.88172e-06      3.03999     -10.6631 
-1.63767e-06      4.88085     -154.354 
3.26134e-06      3.28866     -1.52462 
-3.21102e-06      1.79952     -16.5468 
1.09527e-05    0.0637377      78.6901 
-1.63751e-06      1.99351      163.610 
-6.41287e-06      1.89085      31.4834 
1.63564e-06      3.27025     -40.8151 
3.25254e-06     0.665794     -50.3322 
-1.89062e-05      4.48386     -172.954 
-1.63312e-06      4.60097     -112.524 
4.77614e-06      3.39864     -4.64114 
-1.53028e-05      4.50569      6.69126 
-4.72685e-06      2.05586      19.5367 
4.80783e-06      6.87519     -59.5186 
-1.73443e-05      4.86738     -12.6086 
1.25417e-05      5.91551      174.422 
-4.82139e-06      1.84153     -41.6981 
-1.41082e-05      5.08252     -172.368 
-7.87304e-06      5.00189     -114.195 
4.74704e-06      4.59900     -130.922 
-1.57368e-05      1.76139     -145.408 
4.81617e-06      3.38722      175.131 
3.20955e-06      3.27586     -1.31189 
-3.20238e-06      4.60776     -112.321 
1.53671e-05      6.30000      180.000 
-6.28883e-06      2.04771     -162.229 
-9.44887e-06      4.86289      14.2863 
-3.12380e-06      7.10872      48.2075 
1.60867e-06      3.39968     -4.85112 
1.60631e-06     0.675463     -51.0090 
3.17262e-06      3.28921      21.3971 
7.76897e-06      3.28788     -40.8376 
3.17459e-06      3.26310     -1.09749 
8.87592e-06      6.40312      178.210 
2.51524e-05      8.21539     -140.619 
-1.59779e-06      1.91213     -48.1798 
6.27400e-06      3.03771     -10.4314 
1.59337e-06      2.98038     -144.043 
1.38674e-05     0.689429      135.000 
1.58806e-06     0.693046     -50.8560 
-8.59407e-06      5.27430     -159.031 
-3.14278e-06      4.49550      25.3538 
-3.13885e-06      1.92978     -48.1507 
7.79223e-06      3.25038    -0.881404 
1.80420e-05      8.51735     -138.332 
-7.80320e-06      1.75366     -30.4034 
-1.57995e-06      1.95400      163.652 
-1.57742e-06      1.79431     -44.7178 
-7.73301e-06      4.78867      19.9959 
-6.18910e-06      4.61252     -112.465 
1.57324e-06     0.683854      59.2159 
1.07929e-05      3.28301      159.495 
3.11020e-06      3.95453      137.434 
1.56859e-06      3.38619      175.342 
3.12178e-06     0.710634     -50.7106 
-1.80407e-05      7.14187      45.2836 
-3.10083e-06      1.78553     -45.5673 
-1.06760e-05      5.00595      166.866 
1.21100e-05      6.41547     -168.537 
-3.07370e-06      5.28598     -159.079 
-4.60791e-06      5.03314      166.792 
1.55424e-06      3.38519      175.553 
8.52184e-06      6.40353      178.098 
6.04475e-06     0.617454     -111.371 
1.21261e-05      7.33511      29.8418 
1.65292e-05      6.33044     -8.40210 
-6.06728e-06      1.88680      32.0054 
-1.54694e-06      5.07181     -172.209 
7.39440e-06      6.85808     -59.5556 
-3.08299e-06      2.00702      129.440 
9.06280e-06      2.41781      66.2180 
1.54596e-06      3.32251      20.4804 
-1.54435e-06      1.92049     -47.9019 
1.54174e-06      3.36705      177.021 
3.07168e-06     0.728226     -50.5722 
7.42676e-06      3.12492     -153.640 
1.14410e-05     0.686477      56.8887 
1.06361e-05      3.03547     -10.1993 
-1.53373e-06      4.48959      25.5662 
3.05543e-06      3.35394      177.223 
3.04778e-06      3.23772    -0.663628 
-1.49509e-05      4.87013     -12.7521 
1.53107e-06      3.32988      20.2036 
-1.50193e-05      2.01498      129.715 
4.50765e-06      4.59082     -130.804 
7.47900e-06      3.94533      137.311 
-1.52409e-06      1.93815     -47.8755 
2.92468e-05      6.60946      18.9832 
-1.52240e-06      4.97057      25.4695 
-3.01325e-06      7.30519      127.282 
1.51963e-06      3.33734      19.9281 
1.04191e-05     0.737924     -51.1886 
-3.01039e-06      1.78579     -46.1344 
1.11271e-05      8.50905     -138.394 
-2.04959e-05      5.07013     -172.349 
5.99905e-06      3.35336      177.436 
-1.48807e-05      4.99678     -114.064 
1.50952e-06      3.34487      19.6538 
-2.99855e-06      4.85982      14.1435 
5.97343e-06      3.22510    -0.444144 
-7.41361e-06      4.47145     -172.935 
-2.97215e-06      2.05156     -161.896 
-1.50489e-06      4.95929      25.5316 
1.02257e-05      5.92918      174.313 
-1.50315e-06      1.78623     -46.7014 
-8.82023e-06      1.75828     -144.841 
1.02546e-05      3.29910      159.368 
-4.45898e-06      4.61731     -112.608 
1.49934e-06      3.37197      19.0395 
-2.98093e-06      4.49500      25.7100 
1.49919e-06      3.13050     -153.435 
1.49428e-06      3.04777     -10.1577 
2.10815e-05     0.690335      58.3245 
-2.96658e-06      4.78441      19.8552 
1.49105e-06      3.36015      19.1090 
-1.48780e-06      1.94655     -47.6026 
-1.48766e-06      4.92548     -154.280 
-2.93463e-06      2.03968     -161.787 
1.43311e-05    0.0625000      90.0000 
1.46155e-05      3.04559     -9.92624 
-8.80189e-06      5.02097      166.759 
2.94505e-05      2.97195      167.367 
1.01541e-05     0.698324      134.275 
-2.94034e-06      2.28035     -37.8750 
-2.92483e-06      4.57304     -154.065 
1.47635e-06      3.36791      18.8384 
5.84862e-06      3.34033      177.641 
-4.37531e-06      4.94801      25.5940 
2.94043e-06      7.32428      29.8904 
1.47298e-06      2.41279      66.4896 
1.27584e-05      6.31250      180.000 
-2.89900e-06      2.06765      19.4208 
-4.30310e-06      1.93734     -47.3533 
1.43250e-05      3.21252    -0.222940 
-7.14590e-06      7.11706      48.1325 
1.46936e-06      3.16435      25.7553 
-1.01459e-05      2.02299      129.987 
-5.75907e-06      1.88290      32.5295 
3.26356e-05     0.755501     -51.0441 
4.37087e-06      3.37574      18.5691 
1.46618e-06      3.17581     -152.325 
2.89894e-06      3.27843     -40.9804 
8.63712e-06      7.46531     -143.648 
-1.46407e-06      5.01449      63.8182 
1.46263e-06      4.58402     -130.466 
-1.46325e-06      5.63023     -33.8665 
-1.46302e-06      7.32271      127.300 
9.91726e-06      8.50075     -138.457 
1.46116e-06      2.42426      66.6075 
-1.45964e-06      5.27879     -158.904 
-4.26714e-06      4.85678      14.0005 
-2.87734e-06      4.99378      166.833 
-1.14822e-05      4.87290     -12.8955 
-7.10102e-06      5.32308      67.3491 
-2.88864e-06      4.50043      25.8533 
1.77951e-05      2.99051     -144.184 
2.89232e-06      8.18001     -41.7790 
1.81523e-05      3.38365      18.3011 
5.75169e-06      7.32890      29.7570 
7.16593e-06      3.93615      137.188 
1.45371e-06     0.745822     -50.4403 
-2.87502e-06      4.62885     -112.548 
-8.50991e-06      6.88479      125.393 
2.86908e-06     0.622118     -112.443 
-2.88001e-06      2.28805     -38.1221 
1.54009e-05      6.33228     -8.51399 
-4.25573e-06      4.77266      19.9062 
1.52724e-05      2.41932      66.8792 
-1.25820e-05      4.49328      6.70984 
1.63867e-05      6.40572     -168.405 
7.11611e-06      3.33984      177.855 
2.67731e-06      8.49247     -138.521 
-1.44035e-06      4.46061     -172.755 
-1.55110e-05      5.00880      166.727 
-4.22050e-06      5.00899      63.9465 
2.22152e-05      3.71723     -149.036 
-1.36876e-05      2.04363     -161.454 
7.08464e-06      3.04346     -9.69444 
-2.84447e-06      4.93674      25.6567 
-2.08610e-05      2.02152      130.486 
-1.24753e-05      1.75535     -144.273 
2.82777e-06      4.57592     -130.347 
6.46214e-06      8.48419     -138.584 
-1.42368e-06      1.91968     -47.3750 
1.50115e-05      8.17069     -41.8374 
1.27830e-05      7.89039      138.532 
3.56488e-05      3.20000      0.00000 
-1.41909e-06      4.95897      8.84499 
-6.94665e-06      4.44821     -172.735 
-1.50541e-05      7.13308      45.3550 
-1.41771e-06      4.58428     -154.134 
-4.21075e-06      4.50590      25.9964 
-1.41767e-06      2.27823     -38.3161 
5.57963e-06      7.47538     -143.705 
2.93880e-05      5.91674      174.301 
-2.82828e-06      5.04929     -152.103 
4.15965e-06      3.39163      18.0343 
-1.41609e-06      7.31514      127.222 
1.63560e-05      3.32690      159.318 
2.77561e-06      3.14168     -153.537 
6.94832e-06      7.31805      29.8056 
4.89523e-05      6.59878     -164.621 
-1.41067e-06      5.64062     -33.7957 
1.41032e-06     0.716000      134.293 
-8.30491e-06      5.05774     -172.330 
6.89669e-06     0.688408      60.6422 
-8.38753e-06      5.04412     -151.911 
6.91693e-06      8.45732      42.6041 
5.37200e-06      8.47593     -138.647 
-1.40645e-06      1.80451     -47.2457 
1.40546e-06     0.843449      129.588 
-2.80570e-06      4.88509     -12.8628 
1.10378e-05      3.92699      137.064 
-9.43617e-06      5.04704     -172.171 
-1.40078e-06      2.29578     -38.3675 
-1.40095e-06      4.81758     -165.423 
6.83305e-06     0.833854      130.135 
2.57634e-05      3.05578     -9.65498 
-8.31647e-06      4.87571     -13.0387 
1.73333e-05      6.08617     -96.2492 
-2.77415e-06      7.62168      128.073 
-2.76332e-06      4.63366     -112.691 
1.77474e-05      6.62907      18.8108 
8.25960e-06      3.32690      178.062 
9.50608e-06      7.11070      63.4800 
-2.77781e-06      4.92548      25.7197 
-2.76451e-06      2.28600     -38.5620 
5.47270e-06     0.725000      133.603 
2.69203e-06      6.40395      177.987 
-5.42908e-06      1.88965      32.8491 
-6.85944e-06      5.03900     -151.718 
1.38008e-06      3.18151      25.3569 
-1.56153e-05      3.37224     -121.510 
-2.73627e-06      4.94662      8.86725 
-4.06629e-06      5.62328     -33.7607 
-1.37675e-06      4.98161      166.801 
-2.11236e-05      5.04494     -151.593 
1.37262e-06      6.43604      150.697 
-9.26607e-06      5.32790      67.2250 
-2.12960e-05      4.99664      166.694 
-2.72612e-06      7.12541      48.0576 
-1.31373e-05      6.86736      125.368 
3.00483e-05      6.32500      180.000 
-2.72745e-06      4.51139      26.1391 
-2.52416e-05      4.88788     -13.0056 
-2.69692e-06      1.94583     -47.0826 
1.36841e-06      5.93043      174.193 
1.94830e-05      7.47807     -143.839 
5.37627e-06    0.0760345      99.4623 
6.53609e-06     0.699330      61.1443 
6.66769e-06      8.46768     -138.711 
-1.36449e-06      4.91422      25.7829 
5.32910e-06      6.47487      150.763 
-5.35842e-06      2.29381     -38.8061 
-5.33818e-06      7.61398      127.999 
5.30283e-06     0.693384      62.0490 
4.11383e-05      7.34134     -150.074 
-2.67736e-06      4.76842      19.7650 
-2.68497e-06      4.90296      25.8464 
2.65601e-06      4.56784     -130.227 
2.57047e-05      3.37974      18.0999 
8.00794e-06      3.32650      178.277 
-2.84431e-05      2.02966      130.754 
1.18786e-05      8.13861      38.5774 
1.05442e-05     0.806710      130.601 
-2.55517e-05      1.75259     -143.702 
-2.64815e-06      1.96350     -47.0638 
1.06141e-05      3.94466      137.055 
5.32542e-06      7.30721      29.8543 
1.34276e-06     0.615554     -113.962 
1.56141e-05      6.33415     -8.62581 
-6.55410e-06      4.48086      6.72851 
-2.66665e-06      4.51691      26.2814 
-2.43653e-05      5.03992     -151.401 
-2.65932e-06      4.99170     -113.933 
1.89135e-05      6.30389      171.677 
6.55443e-06      8.22506     -140.674 
-2.65906e-06      4.42666     -172.373 
1.33677e-06      3.17539     -152.830 
6.48400e-06     0.704450      62.5256 
-2.65618e-06      4.84200     -16.1892 
2.66139e-06      3.72368     -148.871 
-3.92576e-06      5.17258     -78.8530 
-2.65092e-06      7.12637      48.1995 
2.62487e-06      8.44886      42.5417 
-1.33020e-06      4.93427      8.88962 
1.42821e-05      2.96924      167.602 
1.32962e-06      3.20493      24.6659 
9.18154e-06      6.64873      18.6393 
-3.94289e-06      5.03466     -172.152 
-7.80343e-06      7.98449     -130.874 
-1.32322e-06      4.63849     -112.834 
1.32337e-06      4.00031     -89.2838 
1.11950e-05      3.18752     0.224688 
1.66725e-05      3.72796     -149.135 
-3.93397e-06      8.76254     -43.4394 
1.27941e-05      2.42597      67.2666 
-3.91380e-06      4.53366      26.3531 
-6.46241e-06      4.84550     -16.3312 
5.19477e-06      3.32615      178.493 
-2.61562e-06      7.12430      45.4265 
2.61313e-06    0.0910014      105.945 
2.60956e-06      7.31185      29.7206 
1.30962e-06      3.31366      178.487 
-5.12792e-06      2.30166     -39.0486 
8.96280e-06      3.98781     -89.2816 
-2.60176e-06      4.89172      25.9103 
2.61099e-06      6.39191     -2.12939 
1.30746e-06      3.05371     -9.42377 
-1.48308e-05      2.04764     -161.123 
-1.30410e-06      7.63152      128.015 
-2.59371e-06      4.35863     -170.592 
5.14619e-06      7.11629      63.3899 
-1.30201e-06      4.77598      19.5731 
3.87895e-06      3.38778      17.8333 
2.57380e-06      3.06811     -9.61583 
3.74611e-05      6.39630      156.993 
7.55127e-06     0.797261      131.186 
1.27558e-05      3.34302      159.193 
-3.53418e-05      7.13471      48.1247 
1.02094e-05      3.93552      136.931 
-2.58242e-06      4.41427     -172.352 
6.25215e-06     0.694622      59.7436 
1.27339e-05      3.06604     -9.38552 
-1.25864e-05      8.75395     -43.3799 
2.56513e-06     0.751769      132.979 
8.71622e-06      6.44653     -170.739 
8.92882e-06      7.30100      29.7692 
3.86799e-06      6.66845      18.4689 
-5.11141e-06      7.11540      45.3559 
1.11550e-05      8.16236     -41.7720 
-5.08185e-06      7.62383      127.941 
-1.28923e-06      4.92192      8.91211 
1.28881e-06      3.22374      23.7820 
-1.00747e-05      5.02401     -171.991 
1.28586e-06     0.609431     -115.514 
1.76518e-05      6.68824      18.2995 
2.55752e-06      6.38377     -168.250 
-1.28744e-06      4.55041      26.4243 
-1.87484e-05      4.98448      166.661 
1.56717e-05      7.88103      138.472 
1.28561e-06      3.00065     -144.324 
1.26023e-05      3.31335      178.703 
5.09970e-06      8.14641      38.6461 
-1.28166e-06      4.86377      25.9065 
-4.27284e-05      4.89727     -12.8302 
5.04617e-06      3.00357     -144.656 
2.54004e-06     0.106800      110.556 
1.27626e-06      4.56132     -129.886 
-3.75935e-06      1.98970     -46.7820 
-5.04876e-06      4.85253      25.9710 
-2.54475e-06      4.42502     -172.534 
-1.27067e-06      4.56161      26.3544 
-2.51895e-06      4.90957      8.93471 
-1.26969e-06      5.03395     -151.526 
1.45611e-05      8.21714     -140.741 
-5.03124e-06      7.98578     -130.747 
-1.26925e-06      4.64336     -112.976 
1.26795e-06      3.13640     -154.252 
-3.76795e-06      4.37511     -170.295 
3.35023e-05      6.22626      1.15036 
-3.69719e-06      4.86102     -16.4311 
2.51865e-06     0.824337      130.696 
1.26470e-06      8.43966      42.5991 
-1.26163e-06      4.76421      19.6235 
1.35494e-05      6.33603     -8.73757 
2.50710e-06      6.64014     -163.373 
-2.51204e-06      4.57836      26.4251 
-2.50073e-06      4.46845      6.74729 
-1.25896e-06      4.37723     -170.134 
8.63571e-06      2.96658      167.838 
3.74820e-06      6.37409     -168.117 
-7.26360e-06      5.33943      67.2770 
4.97440e-06      3.90872      136.814 
2.51102e-05      5.90430      174.289 
6.22907e-06      8.15423      38.7147 
2.49873e-06      1.80039     -91.1935 
-1.25503e-06      1.77077     -30.5476 
2.53519e-05      6.33750      180.000 
1.25343e-06      7.98569     -37.6233 
8.52675e-06      7.12190      63.3000 
4.93135e-06      3.13099     -154.458 
-3.72356e-06      4.84903     -16.4729 
-6.15561e-06      7.10662      45.4276 
-1.25118e-06      5.17018     -78.9889 
4.97010e-06      7.29015      29.8180 
2.06889e-05      3.07838     -9.34758 
-2.10195e-05      6.84993      125.343 
1.24717e-06     0.603764     -117.096 
-2.03705e-05      2.03785      131.021 
7.26361e-06      6.07512     -96.3792 
1.24414e-06     0.709974      63.8861 
1.33576e-05      3.35915      159.070 
0.000109528      6.69620      18.1644 
-4.92151e-06      4.81334      26.0327 
-2.45780e-06      4.77181      19.4317 
7.29030e-06     0.773082     -50.9061 
2.47484e-06      3.98799     -89.1020 
-3.68731e-06      7.61615      127.867 
-6.07729e-06      4.41262     -172.513 
2.45530e-06      4.55331     -129.765 
1.24087e-06      3.24331      22.9086 
1.08951e-05      3.73869     -149.233 
-2.45205e-06      2.29990     -39.4866 
1.80302e-05      7.48817     -143.895 
-1.23903e-06      4.40401     -170.030 
-1.46164e-05      5.03496     -151.208 
-7.31621e-06      7.97763     -130.679 
-1.23652e-06      5.00980     -154.586 
1.23476e-06     0.123111      113.962 
4.82735e-06     0.814900      131.269 
1.19291e-05      3.01377     -144.794 
8.49254e-06      6.64372     -163.270 
-1.23112e-06      4.58956      26.3557 
1.68425e-05      3.31309      178.919 
-2.44806e-06      4.89723      8.95742 
6.02772e-06      2.43272      67.6519 
-1.22824e-06      4.82458      25.9676 
4.88196e-06      8.16205      38.7831 
1.20518e-05      3.92639      136.806 
2.44774e-06      3.37178      18.3678 
1.22651e-06      7.29480      29.6840 
8.10270e-06      3.97549     -89.0992 
2.42869e-06     0.139754      116.565 
-6.05844e-06      5.00102     -171.809 
8.29247e-06      5.33773      126.333 
-1.22378e-06      4.41850     -169.898 
6.05190e-06      7.28394      29.7327 
1.22134e-06      6.35223     -167.960 
2.43218e-06      1.81289     -91.1853 
7.14719e-06      7.98344     -37.7491 
-1.19440e-05      1.76268     -143.943 
-9.04731e-06      5.81384      63.7104 
-1.76604e-05      8.74536     -43.3204 
-2.42169e-06      4.46993      6.90641 
1.25619e-05      3.04395      33.9511 
-1.21805e-06      4.43080     -169.926 
6.00207e-06      3.35992      18.4349 
1.89128e-05      3.18760     0.449369 
-3.62014e-06      5.58672      72.8219 
3.61851e-06     0.778621      132.397 
4.96105e-05      6.22652      1.26536 
-2.42053e-06      4.45761     -169.824 
1.21278e-06     0.598566     -118.706 
-2.91817e-05      4.97231      166.628 
4.79844e-06      3.04061      34.2780 
-1.21262e-06      4.64546      26.3582 
1.21026e-06      6.31819     -167.779 
-1.42137e-05      5.04099     -151.083 
-4.60440e-05      4.90671     -12.6555 
2.39617e-06      8.42200      42.5940 
-4.76145e-06      4.76294      26.1616 
-2.40214e-06      7.62602      127.809 
-2.40363e-06      2.00737     -46.7663 
4.79839e-06      8.16989      38.8515 
1.64489e-05      3.36786      18.1660 
-3.57599e-06      4.86457     -16.5723 
-1.20518e-06      4.64169     -113.320 
-3.58618e-06      4.88488      8.98025 
-2.40263e-06      4.77417      26.0954 
1.76276e-05      6.35001      179.887 
1.20150e-06      3.19797     -152.534 
-3.59706e-06      4.49674     -169.752 
1.19913e-06      6.28422     -167.595 
-1.19997e-06      5.18245     -79.0153 
-2.38742e-06      5.00820     -114.006 
2.17428e-05      6.31808      171.581 
1.19975e-06      3.24820      23.1117 
-7.05237e-06      7.09785      45.4995 
6.52048e-05      6.41270      156.933 
3.54947e-06      3.14228     -154.556 
3.57740e-06      2.95175      168.024 
2.38884e-06      1.82517     -90.7848 
-2.06884e-05      7.14402      48.1916 
-4.70124e-06      4.76766      19.2900 
3.56591e-06      6.32368     -8.75477 
1.05558e-05      7.27309      29.7815 
-1.04784e-05      7.97898     -130.553 
2.38025e-06      6.26251     -167.434 
2.37786e-06     0.593849     -120.343 
2.37134e-06      3.18652     -152.932 
5.83701e-06     0.805547      131.855 
2.37483e-06      8.17773      38.9197 
1.18888e-06      4.54533     -129.644 
-2.37550e-06      4.50904     -169.780 
8.21570e-06      6.24896     -21.2268 
-9.21996e-06      4.87655     -16.5304 
-9.19070e-06      4.41101     -172.674 
-1.02528e-05      5.59042      72.6995 
-1.18522e-06      2.01595     -46.5074 
2.35903e-06      4.47301     -52.2654 
-5.78810e-06      4.72378      26.2260 
-2.35852e-06      7.61837      127.735 
-1.18072e-06      4.98864     -171.789 
1.18248e-06      6.25031     -167.409 
-1.18240e-06      5.00445     -154.715 
3.51375e-06      2.94918      168.261 
-2.33386e-06      4.45753      6.92573 
-2.35977e-06      4.52134     -169.808 
5.42204e-06      3.03029      34.4111 
2.45064e-05     0.693384      56.0235 
4.68976e-06      8.18559      38.9878 
3.50885e-06      3.34748      158.993 
2.33982e-06      1.83754     -90.3898 
8.11124e-06      6.33794     -8.84926 
1.25932e-05      3.74944     -149.331 
1.50086e-05      3.91729      136.681 
8.13838e-06      6.22866     -167.247 
9.29177e-06      3.09071     -9.30994 
1.17689e-06     0.796280      132.455 
1.17583e-06      3.19223     -152.733 
-5.76901e-06      4.96571     -171.605 
1.79355e-05      6.64733     -163.167 
-1.17350e-06      4.87253      9.00319 
1.83927e-05      3.30038      179.132 
1.02346e-05      7.12752      63.2103 
5.78564e-06      8.69408      42.9608 
8.06600e-06      4.48067     -52.1390 
-6.95354e-06      4.54816     -169.709 
1.16959e-06     0.197642      124.695 
-8.04185e-06      4.73499      26.1592 
3.48608e-06      3.37530      158.947 
-1.16814e-06      2.28870     -40.1261 
2.31100e-06      2.42799      67.9247 
-4.60916e-06      4.65727     -154.398 
-2.12508e-05      1.75000     -143.130 
-5.79536e-06      5.03612     -150.890 
-1.16594e-06      4.87450      9.14831 
1.00328e-05      6.07374     -96.2621 
1.26311e-05      7.49827     -143.952 
1.16376e-06      3.97571     -88.9191 
1.16277e-06     0.589624     -122.005 
1.58142e-05      3.19766     -153.034 
4.62135e-06      8.19346      39.0557 
2.30443e-06      8.40433      42.5890 
-1.16009e-06      5.18009     -79.1510 
-1.16032e-06      5.01329     -114.137 
1.71223e-05      6.36251      179.887 
2.29301e-06     0.782823     -51.4831 
1.15684e-06      3.24916     -41.7251 
1.15728e-06      2.94666      168.499 
-1.15478e-06      4.53586     -169.681 
1.02512e-05      6.23731     -21.2683 
-3.42726e-06      4.86216      9.17173 
3.42780e-06      1.85004     -90.3871 
-1.12996e-05      4.56046     -169.737 
4.70980e-05      8.20924     -140.809 
6.75119e-06      5.33034      126.225 
5.65896e-06      7.98123     -37.8750 
1.15098e-06      6.21647     -167.221 
-1.15140e-06      4.98781     -154.784 
-1.01596e-05      5.04221     -150.766 
-3.42080e-06      5.40732     -175.093 
4.39324e-05      6.23902      1.26283 
-1.14908e-06      7.61072      127.660 
-1.14802e-06      2.05171     -160.792 
1.01724e-05      3.36364      158.871 
2.28044e-06     0.592927     -124.695 
-1.22540e-05      4.77536      19.0989 
3.42723e-06      7.26224      29.8305 
1.21981e-05      3.20010     0.447614 
3.42609e-06      8.20134      39.1235 
-3.42600e-06      5.04704     -150.959 
5.58408e-06      3.19201     -153.234 
1.24217e-05      6.19488     -167.057 
1.14392e-06      6.35492      87.7454 
5.49453e-06      3.96321     -88.9157 
6.76439e-06      3.23984     -41.8722 
1.14399e-06      2.93194      168.690 
1.66690e-05      3.35599      18.2325 
-1.66684e-05      2.04729      130.791 
3.41819e-06      2.74901     -7.57743 
-3.39831e-06      7.08910      45.5715 
-1.97883e-05      8.73679     -43.2608 
2.00759e-05      5.89063      174.398 
5.62350e-06      8.70260      43.0211 
-3.38469e-06      7.98037     -130.426 
1.30136e-05      6.35444      87.8580 
3.40119e-06      2.92951      168.930 
-1.13703e-06      2.03362     -46.4943 
-2.24576e-06      4.65165     -113.603 
1.13501e-06      8.20924      39.1912 
3.36913e-06      8.39588      42.5262 
3.38538e-06      7.26689      29.6960 
2.26090e-06      3.18772     0.674037 
1.13073e-06     0.832541      131.348 
4.47686e-06      3.02399     -144.930 
4.50549e-06      6.32559     -8.86668 
3.37616e-06      2.76140     -7.54323 
4.49741e-06      8.21714      39.2587 
-2.25341e-06      4.66855     -154.464 
2.25282e-06      3.10305     -9.27260 
7.69939e-06      4.49821     -52.1111 
1.12741e-06     0.232513      126.254 
-1.12628e-06      5.35096      67.3287 
8.91347e-06      7.50838     -144.008 
3.36187e-06      2.98656      5.04245 
-8.87412e-06      4.57276     -169.765 
-2.24200e-06      4.84982      9.19527 
6.64298e-06      6.38412     -161.033 
1.44170e-05      3.30021      179.349 
2.18441e-05      3.93496      136.673 
-2.31266e-05      4.96015      166.594 
-3.35172e-06      5.41977     -175.105 
1.59328e-05      6.59548     -164.726 
9.94817e-06      7.89150     -41.3396 
2.22673e-06      1.86250     -90.0000 
1.31694e-05      7.25603      29.7449 
-1.12033e-06      2.05947     -161.235 
5.54068e-06      2.92714      169.170 
-4.21293e-06      4.69583      26.2240 
5.92235e-05      6.35000      180.000 
-5.54137e-06      5.04833     -150.642 
2.22511e-06     0.823199      131.923 
1.10062e-05      6.24186     -21.3753 
7.72791e-06      6.20707     -167.083 
6.61705e-06      2.73499     -7.35238 
1.11660e-06      1.86254     -90.3845 
-2.22719e-06      7.97227     -130.358 
-9.88058e-06      4.70704      26.1568 
4.43904e-06      8.22506      39.3262 
1.11490e-06     0.275284      129.472 
3.31268e-06      3.76019     -149.428 
5.52772e-06      2.97524      5.30340 
2.22119e-06      6.33988     -8.96088 
-2.21124e-06      4.68522     -154.392 
-2.17567e-06      1.74759     -142.556 
-2.20017e-06      7.09803      45.6421 
8.77061e-06      3.35198      158.794 
-1.11021e-06      4.85184      9.34098 
-9.84799e-06      5.05447     -150.519 
2.21150e-06      3.11539     -9.23556 
1.10797e-06      3.75583     -149.167 
-1.10716e-06      2.02504     -46.7509 
-1.10722e-06      7.62062      127.603 
1.10635e-06      2.43493      68.3078 
2.20530e-06      8.38667      42.5839 
1.10617e-06      3.18083     -153.636 
3.27597e-05      6.25151      1.26030 
-3.30023e-06      4.83950      9.36500 
-7.64588e-06      7.97372     -130.231 
2.20387e-06      8.23298      39.3935 
-3.29946e-06      5.43222     -175.116 
3.28962e-06     0.292884      129.806 
7.63811e-06      6.32753     -8.97851 
9.64167e-06      3.03359      34.0829 
-1.10125e-06      4.89210     -16.6291 
-2.18436e-06      4.58506     -169.793 
5.41472e-06      8.71114      43.0812 
5.42601e-06      1.87500     -90.0000 
4.36108e-06      3.23054     -42.0202 
6.47817e-06      2.91253      169.365 
4.37461e-06      8.24092      39.4606 
7.61282e-06      7.51850     -144.064 
1.09675e-06      3.02709     -145.260 
-2.17928e-06      4.64523     -113.806 
-1.09560e-06      2.06352     -160.907 
1.29258e-05      3.76657     -149.265 
3.26897e-06      2.97642      5.54299 
1.09491e-06     0.840852      131.987 
-6.52531e-06      4.56271     -169.583 
-2.76947e-05      4.57500     -169.611 
4.34603e-06      3.30009      179.566 
4.32928e-06      3.12975     -9.42470 
2.09446e-05      7.87275      138.540 
7.40333e-06      2.43958      68.0350 
3.21724e-06      3.03737     -145.394 
-4.33921e-06      5.44468     -175.127 
5.43137e-06      2.96398      5.56633 
3.24604e-06      8.38743      42.4632 
2.15463e-06      7.13316      63.1206 
7.43819e-06      5.34781      126.254 
1.07759e-05      5.87698      174.508 
-5.39365e-06      4.82922      9.53547 
1.70463e-05      6.18552     -166.919 
7.55621e-06      8.24887      39.5277 
-4.29786e-06      6.84271      125.258 
5.40849e-06      3.28760      179.564 
6.44726e-06      3.20880     -153.135 
3.23466e-06     0.310494      130.101 
2.16466e-06      7.88325     -41.2714 
-2.62451e-05      4.78717      19.0500 
-2.16661e-06      5.06063     -150.396 
1.99179e-05      3.21447     -152.937 
1.08327e-06      2.74739     -7.31902 
-1.08127e-06      5.60608      72.6155 
9.59166e-06      6.37230     -160.996 
-1.08157e-06      4.71316     -154.386 
-1.08058e-06      7.61300      127.528 
7.47880e-06      3.34033      158.716 
6.45933e-06      6.23930      1.37759 
2.14235e-06      6.33044      171.598 
3.22151e-06      6.23022     -21.4172 
3.21691e-06      2.72101     -7.12502 
3.55339e-05      6.65096     -163.064 
1.28055e-05      2.96522      5.80673 
-2.53513e-05      4.94800      166.561 
1.16944e-05      7.89265     -41.2115 
-3.21939e-06      5.27176     -149.665 
-1.07461e-06      5.01842     -114.267 
-9.52908e-06      2.05677      130.564 
-8.49468e-06      7.97521     -130.105 
-8.49411e-06      4.67909      26.1543 
-2.10340e-05      5.04359     -150.449 
6.39642e-06      7.52862     -144.120 
-4.28147e-06      5.45713     -175.138 
4.25063e-06      3.22127     -42.1690 
1.91323e-05      6.26401      1.25779 
6.38581e-06      7.24518      29.7939 
1.38045e-05      3.28752      179.782 
2.13018e-06     0.690222      54.5829 
2.14443e-06      6.34184     -9.07244 
1.59015e-05      6.25180      1.37483 
2.13730e-06      6.44061     -171.068 
7.45118e-06      8.25683      39.5946 
1.07038e-06     0.850184      131.424 
4.22659e-06      8.37822      42.5210 
5.30097e-06      6.32949     -9.09028 
8.41435e-06      6.23479     -21.5241 
1.06561e-06      3.34412      18.2995 
3.12142e-05      5.86454      174.496 
-5.28264e-06      4.81899      9.70665 
-1.06438e-06      4.65029     -113.947 
3.16564e-06      3.35210      18.0296 
-2.11251e-06      5.60983      72.4937 
-1.06276e-06      5.28886     -149.617 
2.11933e-06      1.88754     -90.3794 
2.11738e-06     0.328110      130.365 
6.30723e-06      3.14208     -9.38738 
1.99130e-05      6.42910      156.875 
1.24709e-05      7.34759     -149.989 
-4.22753e-06      5.46959     -175.149 
-6.30280e-06      5.29965     -149.685 
1.04672e-05      3.92588      136.548 
1.05817e-06      3.21260     0.445873 
2.11201e-06      2.91025      169.607 
-1.05753e-06      7.60539      127.454 
3.15478e-06      2.73342     -7.09252 
8.39701e-06      8.26481      39.6613 
1.35063e-05      3.77732     -149.361 
7.32677e-06      3.32869      158.638 
5.24247e-06      7.53875     -144.175 
1.77665e-05      2.95408      6.07246 
-1.45129e-05      4.55676      67.5857 
-1.05516e-06      6.85292      125.198 
3.14258e-06      6.43868     -171.178 
1.05357e-06      6.32501     -179.887 
1.05403e-06      7.24984      29.6591 
6.00679e-05      6.69231      18.0627 
9.35266e-06      8.00783     -142.611 
2.09815e-06      6.35399      87.9707 
-1.05145e-06      1.74002     -142.883 
1.05188e-06     0.858505      132.049 
-4.19679e-06      5.57598      165.060 
1.98700e-05      6.27651      1.25528 
5.22614e-06      6.34382     -9.18392 
-7.32774e-06      5.48204     -175.160 
2.08922e-06      2.89795      169.563 
-2.09597e-06      4.54548      25.5785 
2.09733e-06      6.19769     -166.945 
1.04073e-05      7.23898      29.7081 
2.49402e-05      3.27500      180.000 
5.17801e-06      6.34465      171.503 
8.31210e-06      3.21201     -42.3187 
1.04987e-06      8.71968      43.1412 
7.30010e-06      7.88442     -41.1432 
-5.17324e-06      5.03744     -150.573 
-1.14013e-05      6.17500      67.3801 
1.04651e-06     0.576222     -130.601 
-4.18523e-06      5.58806      165.093 
-4.17077e-06      7.96716     -130.036 
1.04379e-06      1.90004     -90.3769 
-2.08150e-06      7.11593      45.7829 
-2.07461e-06      8.72823     -43.2010 
1.04441e-06      3.96299     -89.0964 
-1.04381e-06      2.06765     -160.579 
-6.24793e-06      5.60014      165.126 
1.24327e-05      8.27279      39.7280 
-2.07487e-06      5.82505      63.7649 
2.08275e-06      6.26430      1.37209 
-1.23997e-05      4.58730     -169.639 
-1.04125e-06      4.52881      25.5041 
3.11837e-06      6.33751     -179.887 
2.07875e-06      3.30085      158.682 
2.07106e-06      8.37900      42.4002 
-6.19342e-06      7.14306      48.0500 
-8.29837e-06      5.49450     -175.171 
-2.06879e-06      7.61532      127.397 
-2.07095e-06      4.80880      9.87857 
-3.10679e-06      2.06628      130.338 
2.79361e-05      6.28900      1.25279 
-8.25595e-06      5.32754     -149.705 
6.21491e-06      6.17619     -166.779 
5.16023e-06     0.700446      55.1755 
4.13612e-06      7.54889     -144.231 
2.07240e-06      7.01312     -155.125 
4.14804e-06      6.34583     -9.29533 
2.07253e-06      2.74582     -7.06031 
-3.10688e-06      4.52345      25.3612 
-5.18865e-06      5.61222      165.159 
2.26718e-05      6.36250      180.000 
1.03714e-06     0.575136     -132.357 
3.10447e-06      6.23939     -21.6309 
1.03611e-06      6.33228      171.486 
-7.20480e-06      7.96871     -129.909 
1.03001e-05      7.89384     -41.0835 
3.09482e-06      6.43677     -171.288 
1.33896e-05      6.44059      156.918 
6.18479e-06      3.28921      158.603 
-6.20101e-06      5.62431      165.192 
3.09368e-06      3.90820      136.555 
-3.08901e-06      7.12489      45.8530 
1.44140e-05      2.95542      6.31343 
2.06399e-06      6.86078      156.938 
-3.08487e-06      2.07440      130.601 
-1.23633e-05      5.50696     -175.182 
5.15046e-06      6.36019     -9.38827 
1.03279e-06      2.44655      68.4160 
6.17061e-06      7.22812      29.7572 
2.06200e-06      3.14414     -9.61211 
-9.25780e-06      5.73755      37.1196 
-5.14754e-06      4.91890     -12.6236 
8.21768e-06      8.28079      39.7945 
1.03161e-06      2.75823     -7.02840 
-7.21553e-06      5.63639      165.224 
1.03212e-06      3.31705      158.559 
3.08123e-06     0.566789     -131.424 
6.16419e-06      6.16402     -166.753 
2.15698e-05      6.30150      1.25030 
2.05862e-06      6.87228      156.979 
1.02672e-05      3.26252     -179.780 
3.08429e-06      6.22777     -21.6733 
3.07949e-06      2.45118      68.1443 
1.02772e-06      3.20278     -42.4692 
-2.05234e-06      4.51811      25.2180 
-7.19130e-06      5.64848      165.256 
3.07927e-06      6.85589      157.035 
2.05463e-06      8.00024     -142.682 
2.04960e-06      7.55904     -144.286 
1.02633e-06      3.21124     -42.6338 
1.02497e-06      3.89914      136.429 
1.02644e-06      2.77063     -6.99677 
2.05240e-06      6.37457     -9.48079 
1.02482e-06      5.34043      126.146 
-3.07693e-06      5.51941     -175.193 
1.02410e-06      7.01839     -155.032 
-3.07980e-06      5.66057      165.289 
1.02381e-06      3.27758      158.523 
-1.02341e-06      7.62526      127.340 
