! Center RA: 03 36 47.25882,  Dec: +00 35 13.66143 (2000.0)
! Established model.
! Flux (Jy) Radius (mas)  Theta (deg)  Major FWHM (mas)  Axial ratio   Phi (deg) T \
! Freq (Hz)     SpecIndex
 0.0106845      0.00000      0.00000 
0.00188419    0.0176777      45.0000 
5.83951e-05    0.0450694     -123.690 
5.69003e-05     0.107529      54.4623 
5.54276e-05     0.107529     -125.538 
5.41396e-05     0.135208      56.3099 
5.28256e-05     0.125000     -126.870 
0.000100917     0.152582      55.0080 
5.04289e-05     0.142522     -127.875 
9.42349e-05     0.152582     -124.992 
9.21691e-05     0.162980      57.5288 
8.62089e-05     0.170018     -126.027 
8.43522e-05     0.180278      56.3099 
4.03381e-05     0.162980     -122.471 
3.94958e-05     0.530477     -145.561 
7.60080e-05     0.530477      34.4390 
3.82410e-05     0.173656      59.7436 
7.41080e-05     0.540833     -146.310 
3.58547e-05     0.540833      33.6901 
0.000165618     0.558178     -145.954 
3.47217e-05     0.547865      34.7778 
0.000157003     0.558178      34.0459 
3.00964e-05     0.184560     -118.301 
2.96805e-05     0.185826      70.3462 
0.000136148     0.575543     -145.620 
0.000104832     0.575543      34.3803 
2.65572e-05     0.203485      79.3803 
2.58257e-05     0.185826     -109.654 
2.42920e-05     0.212500      90.0000 
0.000129524     0.592927     -145.305 
8.82244e-05     0.585902      33.6901 
2.28684e-05     0.182003     -105.945 
2.26485e-05     0.226385      96.3402 
2.13473e-05     0.261008      106.699 
2.05153e-05     0.191213     -101.310 
3.92135e-05     0.280903      110.854 
5.68528e-05     0.596343      33.0239 
-7.39098e-05     0.677887      157.218 
1.86940e-05     0.201556     -97.1250 
1.86749e-05     0.302076      114.444 
-0.000179644     0.668604     -20.8068 
3.54965e-05     0.603246     -145.981 
3.55787e-05     0.307459      116.565 
1.76600e-05     0.200390     -93.5763 
-0.000203740     0.673146      158.199 
4.93443e-05     0.606862      32.3807 
3.39306e-05     0.330246      119.476 
1.66599e-05     0.213966     -83.2902 
3.18967e-05     0.613647     -146.634 
3.19864e-05     0.336573      121.329 
1.62296e-05     0.336573     -58.6713 
3.13385e-05     0.343238     -56.8887 
6.02908e-05     0.360555      123.690 
1.51060e-05     0.360555     -56.3099 
-4.33096e-05     0.664267     -19.7989 
2.90387e-05     0.617454      31.7595 
2.87738e-05     0.624124     -147.265 
4.37735e-05     0.367636     -54.6888 
1.42829e-05     0.367636      125.311 
1.39671e-05     0.392508     -52.7652 
1.38768e-05     0.385073      125.754 
-3.24563e-05      4.29607      5.67742 
-0.000545079      4.28364     -174.306 
-0.000511192      4.29486      5.51148 
-2.26587e-05     0.988212     -18.4349 
-0.000119283     0.984330     -17.7447 
-1.37471e-05      4.66491      1.84266 
-0.000177625      4.66453      1.68920 
-0.000119571     0.960550      161.801 
-8.69560e-05      4.66453     -178.311 
-4.70637e-05      4.66418     -178.464 
9.30275e-05      6.18903     -178.727 
7.29854e-05      6.22681      1.38035 
-4.45909e-05     0.972433     -17.9691 
-7.25576e-05      4.67667     -178.468 
1.83931e-05      6.23930      1.37759 
2.18134e-05      6.18876     -178.843 
-3.19795e-05      4.97726     -159.107 
-2.01171e-05      1.93367     -157.580 
-4.97196e-05      4.66418      1.53571 
-3.94807e-05      4.28364      5.69396 
-5.67854e-05     0.948683      161.565 
-7.30128e-05      4.92609      20.9644 
2.95440e-05      6.23902      1.26283 
1.65530e-05      6.81343      159.038 
5.32159e-05      6.45882     -25.0772 
-1.61136e-05      1.92893      22.0772 
-1.31942e-05     0.968649     -17.2658 
4.45140e-05      6.20126     -178.845 
2.29992e-05      6.43877      155.574 
-2.69402e-05      4.98173     -158.973 
-5.79558e-05      4.27120     -174.289 
1.79843e-05      4.88641     -51.7522 
2.41088e-05      6.43362      155.676 
-3.72595e-05     0.956720     -17.4880 
3.15370e-05      5.28752      143.266 
5.90890e-06      1.04657      97.5494 
4.45715e-05      6.25151      1.26030 
1.68757e-05      6.42848      155.777 
-5.31926e-05      1.94523     -157.720 
-6.36204e-05      1.94052      21.9385 
3.46288e-05      4.87868     -51.8675 
4.48549e-05      5.54766     -15.8213 
2.83290e-05      6.45354     -24.9767 
2.75181e-06      6.81791      158.940 
1.58295e-05      6.42336      155.879 
3.10312e-05      1.75308     -167.648 
1.28589e-05      5.27750      143.184 
-1.62962e-05      4.99340     -159.024 
-2.80747e-05      4.67635     -178.621 
1.83053e-05      5.53907      164.019 
5.04236e-06      6.41826      155.981 
4.38675e-05      1.75579      12.7500 
2.52402e-06      6.42968      156.026 
2.51589e-06      6.79459      158.864 
2.46746e-05      6.21352     -178.963 
1.21284e-05      6.42461      156.128 
2.53650e-05      5.27002      143.293 
-3.71687e-05     0.932905      162.051 
4.69660e-06      6.41956      156.230 
1.55797e-05      6.44827     -24.8760 
2.34056e-06      6.77581      158.689 
1.13559e-05      6.42598      156.377 
2.14517e-05      1.39065     -125.119 
2.42433e-05      6.26401      1.25779 
4.32740e-06      6.75252      158.612 
6.53256e-06      6.43245      156.524 
6.44378e-06      5.98676      144.518 
1.77279e-05      4.87098     -51.9832 
1.04200e-05      6.43896      156.670 
6.07379e-06      5.26001      143.212 
3.22771e-05      5.97951      144.615 
1.01269e-05      5.02158      136.210 
2.07193e-06      6.45961     -24.8293 
7.92744e-06      6.45437     -24.7286 
5.99791e-06      6.45700      156.860 
1.15866e-05      1.76529     -167.735 
9.73159e-06      6.22602     -178.965 
5.90496e-06      1.39788     -125.538 
5.78671e-06      3.47457     -145.109 
5.80006e-06      6.46360      157.005 
2.07522e-05      5.01256      136.111 
7.53128e-06      1.38044     -125.417 
7.45915e-06      5.28929     -178.510 
-4.62403e-05      1.19013     -162.897 
3.38105e-05      6.23975     -10.3870 
-3.76547e-06      4.94675      68.8170 
3.76039e-06      6.49329      157.236 
3.04774e-05      1.76799      12.6606 
7.35798e-06      5.69343     -151.691 
3.72602e-06      6.44915     -24.6278 
1.85783e-06      3.48483     -145.227 
1.70039e-05      5.18063      151.147 
1.85497e-06      6.60541      155.278 
3.66278e-06      6.51154      157.422 
8.86938e-06      6.22580     -179.080 
-2.00445e-05      4.95128      68.6821 
3.52383e-06      5.25000      143.130 
1.83129e-06      3.49511     -145.344 
3.87962e-05      1.38773     -125.838 
4.10409e-05      1.75579     -167.250 
3.58784e-06      1.62980      85.6013 
-7.08426e-06      3.82529     -48.4442 
1.80702e-06      6.44395     -24.5267 
3.58368e-06      6.48177      157.193 
-1.30763e-05      1.95212      21.8014 
3.46953e-05      5.27679     -178.507 
1.79235e-06      3.49833     -145.629 
1.18554e-05      6.27651      1.25528 
-3.53348e-06     0.941076     -16.9908 
1.77281e-06      6.43877     -24.4255 
1.17443e-05      4.86329     -52.0992 
1.76314e-06      6.71831     -20.9304 
5.20571e-06      6.47024      157.150 
3.45934e-06      3.50865     -145.744 
1.32080e-05      5.70444     -151.750 
-1.47218e-05      7.33971      50.1819 
6.58660e-06      1.63081      85.1634 
-5.08894e-06      3.27931      7.66680 
1.72893e-06      6.43988     -24.1770 
-3.32035e-06      1.95680     -157.859 
-9.75583e-06      3.34685     -94.2838 
1.70498e-06      6.63858      155.172 
-6.64272e-06      3.83359     -48.3044 
1.70285e-06      6.44890     -23.5340 
3.36890e-06      6.48846      157.338 
1.68335e-06      6.47341     -23.1986 
1.12958e-05      6.23830     -179.082 
-2.25049e-05     0.921022      161.811 
-3.20416e-05      1.19386      17.6761 
6.55481e-06      5.98970      144.685 
3.26496e-06      6.64993      155.217 
1.66419e-06      6.47999     -23.0535 
1.65443e-06      6.68066     -21.2838 
6.48361e-06      6.47693      157.295 
1.64278e-06      6.49814     -22.8657 
1.25251e-05      6.50482     -22.7215 
-4.76311e-06      3.28101      7.88314 
6.07751e-06      5.55108     -15.9454 
1.60126e-06      3.51899     -145.858 
3.07876e-06      5.26784     -36.2173 
-1.43788e-05      7.08700     -39.4174 
1.48424e-05      5.98249      144.782 
-6.11347e-06      3.84192     -48.1652 
-1.56986e-06      4.91442      21.0166 
1.20137e-05      6.46540      157.252 
2.13726e-05      4.45984     -169.666 
7.56835e-06      4.85562     -52.2156 
7.41326e-06      6.28900      1.25279 
1.37937e-05      5.18557      151.334 
3.06803e-06      1.63191      84.7261 
2.13254e-05      6.52308     -22.5354 
1.53479e-06      6.66652      155.165 
1.52689e-06      3.52934     -145.972 
-3.48605e-05      7.38162     -133.971 
8.81725e-06      6.25080     -179.083 
-1.00650e-05      7.34772      50.1071 
1.13013e-05      5.71545     -151.810 
-7.19431e-06      3.34594     -94.0704 
-3.72814e-05      3.29339      7.85331 
2.96206e-06      6.68312      155.113 
3.28703e-05      6.25205     -10.3663 
5.83969e-06      3.44004      111.531 
5.65436e-06      1.64436      84.7661 
-6.95915e-06      2.00577     -10.0493 
5.66729e-06      8.39829     -48.8622 
1.85142e-05      1.77077      13.0552 
-9.43433e-06      4.94420      68.4945 
1.44736e-06      3.53971     -146.085 
7.46220e-06      4.84797     -52.3323 
-4.22279e-06      3.85026     -48.0266 
4.13835e-06      5.00356      136.012 
1.46072e-05      6.45387      157.209 
4.20858e-06      3.44465      111.724 
1.41027e-06      6.69446      155.158 
-6.60518e-06      1.96373      21.6660 
9.45210e-06      6.26311     -179.200 
1.39519e-06      5.23756      142.857 
-1.51695e-05      7.19272     -49.7227 
5.41717e-06      6.38927      171.109 
-1.37801e-06      3.85957      131.849 
1.37583e-06      6.69972      155.061 
1.37367e-06      6.30150      1.25030 
1.37270e-06      3.55009     -146.198 
1.31398e-05      3.43770      111.995 
-1.36956e-06      4.96293     -111.265 
2.35587e-05      6.51154     -22.5776 
1.37080e-05      5.99270      144.851 
1.43223e-05      4.84034     -52.4494 
3.85398e-06      5.28068     -35.9476 
-1.34589e-06      3.84937     -47.7639 
-2.63488e-06      5.61162     -61.0942 
-6.29046e-06      5.54004      63.8975 
-1.23366e-05      7.35732      50.1695 
3.91264e-06      8.40652     -48.7980 
3.92735e-06      6.30124      1.13667 
2.64377e-06      6.71106      155.106 
-5.07862e-06      3.34508     -93.8568 
-3.80991e-06      3.86792      131.987 
1.32115e-06      5.22760      142.774 
-3.88146e-06      3.85778     -47.6264 
7.69470e-06      4.44849     -57.1584 
1.31247e-06      1.64554      84.3327 
8.83211e-06      6.37887      170.981 
8.80966e-06      6.87297     -142.463 
7.79926e-05      2.12559     -178.652 
7.41549e-06      1.39508     -126.254 
-2.01597e-05      4.68885     -178.625 
1.29489e-06      3.90693      171.351 
1.36419e-05      6.27561     -179.201 
2.55248e-06      1.96763      76.4052 
3.73458e-06      5.00328      135.810 
-7.21816e-06     0.909155      161.565 
4.87087e-06      5.72647     -151.869 
-2.43117e-06      4.95128     -111.318 
1.20190e-05      6.31374      1.13442 
-2.45951e-06      1.20208     -163.072 
1.78335e-05      8.40536     -48.6778 
-2.36618e-05      3.89391     -167.391 
1.25169e-06      5.56310     -15.9100 
3.67075e-05      4.85724     -174.832 
1.67712e-05      4.47214     -169.695 
3.69354e-06      3.44241      112.188 
1.24133e-06      1.64682      83.8999 
-3.61484e-06      7.07567     -39.6241 
-3.61270e-06      3.86622     -47.4896 
4.81410e-06      6.72766      155.054 
2.12969e-05      4.45900     -57.2455 
2.21413e-05      6.06673      13.4636 
-3.41049e-06      5.60559     -61.2060 
4.75842e-06      6.44235      157.166 
-2.39681e-06      5.98578      46.4384 
1.47610e-05      6.88288     -142.527 
2.39958e-06      6.36653      170.963 
5.91132e-06      3.43559      112.460 
-5.79544e-06      4.94880      68.3598 
-1.19042e-06      4.26997     -174.456 
-2.33359e-06      3.34426     -93.6431 
6.93688e-06      6.35616      170.834 
5.51486e-06      5.58375      164.284 
-4.43617e-06      1.20578      17.4958 
2.32845e-06      5.65006     -22.3663 
1.24183e-05      6.28811     -179.203 
-3.44734e-06      6.90163     -42.3575 
-2.30378e-06      3.87468     -47.3533 
4.49780e-06      6.73294      154.957 
-2.26470e-06      5.99484      46.5208 
4.52342e-06      3.44039      112.652 
1.14943e-06      4.99433      135.710 
6.72657e-06      6.50000     -22.6199 
1.31079e-05      6.26435     -10.3457 
-4.35622e-06      3.87629      132.125 
1.73689e-05      6.32624      1.13218 
5.04849e-05      2.11342      1.69465 
4.14642e-06      7.31502      36.7328 
2.22430e-06      5.19654      151.401 
1.13260e-06      5.29364     -35.6792 
2.25006e-05      6.42420      156.977 
-1.12984e-06      5.54555      63.7815 
-1.63407e-05      6.72804     -161.026 
5.45920e-06      7.30755      36.6543 
1.12342e-06      1.95256      76.6755 
-1.11989e-06      3.34349     -93.4294 
3.32963e-06      6.34583      170.705 
5.47719e-06      5.69147      177.860 
-1.11711e-06      6.91087     -42.2876 
7.08291e-06      5.99575      145.018 
-1.22794e-05      7.18464     -49.7988 
3.28937e-06      4.60613      177.044 
-3.28658e-06      3.88251     -46.9570 
1.10990e-06      5.65482     -22.4835 
6.23938e-06      2.01634      160.442 
3.26522e-06      4.95082      124.091 
8.53231e-05      6.07888      13.4362 
2.17582e-06      5.74339     -151.817 
2.18064e-06      3.43370      112.925 
-1.03650e-05      6.92101     -42.0718 
-3.24074e-06      4.93693      62.3969 
-5.18711e-06      7.36533      50.0948 
1.09033e-06      6.33553      170.575 
3.23673e-06      6.49329     -22.7641 
-2.14869e-06      3.34276     -93.2155 
2.15640e-06      6.32320      170.556 
-3.09590e-06      4.94182      68.1717 
2.12044e-06      6.27441     -10.2130 
5.26375e-06     0.818917     -102.339 
1.07025e-06      5.91492      131.573 
2.11221e-06      6.30061     -179.204 
5.25494e-06      3.43859      113.117 
8.28936e-06      5.70396      177.865 
4.22017e-06      6.31293      170.426 
6.89186e-06      2.02272     -105.410 
3.12322e-06      6.73824      154.861 
6.20329e-06      6.89049     -142.444 
7.23410e-06      6.48177     -22.8069 
8.91201e-06      4.60550      177.200 
-2.10287e-06      3.89106     -46.8224 
3.10146e-06      6.30045     -179.318 
3.10938e-06      4.94751      124.292 
-1.05399e-06      4.94801      62.4639 
5.97416e-06      5.90557      131.654 
-1.05139e-06     0.913527     -16.6992 
2.14277e-05      4.55619     -2.98800 
1.04900e-06      4.99414      135.507 
4.97402e-06      5.75441     -151.876 
2.07109e-06      7.29753      36.7129 
-1.04252e-06      3.32897     -92.7979 
3.10092e-06      6.30270      170.295 
-4.07154e-06      4.95380      62.3357 
1.19564e-05      6.33873      1.12995 
-8.97326e-06      7.52317     -33.4788 
-4.02701e-06      3.89962     -46.6885 
1.64148e-05      6.27664     -10.3253 
6.00834e-06      3.43702      113.582 
2.17586e-05     0.828591     -101.310 
4.03896e-06      6.28019      170.144 
1.01530e-06      5.20156      151.587 
-1.01064e-06      3.67383     -115.170 
2.98083e-06      4.95456      124.412 
6.73179e-06      6.74356      154.765 
4.81064e-06      4.49898      10.4045 
1.34050e-05      5.70444      177.739 
1.57759e-05      6.90041     -142.507 
5.77592e-06      6.31295     -179.319 
3.95807e-06      6.27003      170.012 
-3.90450e-06      3.67916     -115.346 
6.72897e-06      6.47511     -22.9517 
-9.92274e-07      3.32784     -92.3680 
-9.91164e-07      3.88388      132.522 
2.90908e-06      5.66697     -2.27546 
-3.88574e-06      4.95962      62.2078 
-7.48373e-06      3.89665     -167.212 
8.26538e-06      4.46577     -57.1106 
-1.42939e-05      4.70135     -178.629 
5.79440e-06      6.24760      169.859 
-4.78373e-06      3.90820     -46.5552 
3.85264e-06      3.43568      114.047 
7.31557e-06      7.30501      36.7915 
-9.70286e-07      5.98625      46.6076 
-5.64796e-06      3.67477      78.4225 
2.85120e-06      4.96163      124.531 
6.48802e-06      8.40425     -48.5575 
9.64395e-07      4.54371     -2.99622 
-4.67422e-06      6.93124     -41.8566 
-2.81063e-06      7.37336      50.0203 
5.45855e-06      4.48668     -169.567 
-9.27188e-06      7.53360     -33.4264 
1.20198e-05      6.35123      1.12772 
9.29362e-06      6.23751      169.726 
4.40769e-06      5.63152     -48.4193 
-0.000234902      6.61563      164.099 
-1.87983e-06      4.96546      62.0802 
4.66066e-06      3.43457      114.513 
-3.69318e-06      3.68453     -115.522 
9.41154e-07      4.98513      135.203 
-1.85635e-06      7.05629      125.774 
3.25806e-05      2.12533     -178.989 
7.08507e-06      4.86969     -174.846 
1.83851e-06      5.67946     -2.27045 
-4.55984e-06      3.91681     -46.4224 
9.27509e-07      5.60866      157.321 
-9.24898e-07      4.97132      61.9529 
9.24188e-07      4.82281     -52.4767 
-9.53730e-06      6.72399     -161.127 
1.82029e-06      6.46360     -22.9949 
1.81323e-06      4.96873      124.650 
-9.14614e-07      4.98236      62.0205 
3.61983e-06      3.43368      114.979 
5.36878e-06      2.24781      27.8476 
9.10270e-07      3.59863     -146.476 
3.56433e-06      6.32544     -179.321 
2.68732e-06      6.73760      154.623 
2.12461e-05      5.71693      177.744 
9.07582e-07      6.00600      145.086 
3.36858e-05      6.22746      169.592 
-2.69124e-06      4.98824      61.8937 
2.67651e-06      2.01067     -105.505 
-6.12184e-06      3.67228      78.6136 
2.05059e-05      6.28894     -10.3048 
-3.55468e-06      2.76261      89.4815 
3.38983e-06      5.89624      131.734 
-6.73865e-06      7.17658     -49.8750 
-1.40378e-05      6.92193     -41.9257 
-8.96727e-07      7.05348      125.915 
-1.77519e-06      3.68994     -115.697 
-8.94344e-07      7.38294      50.0826 
3.27450e-05      6.36373      1.12551 
1.75005e-06      5.76544     -151.935 
4.39584e-06      3.42767      115.257 
-8.89418e-07      7.54404     -33.3741 
8.88932e-07      6.46849     -23.0968 
-4.23710e-06      3.29512      8.06863 
-5.21482e-06      5.32384     -122.048 
-6.04623e-06      3.92544     -46.2902 
7.58333e-06      5.99885      145.184 
1.74633e-06      3.60906     -146.585 
8.81213e-07      4.97585      124.768 
-1.74702e-06      7.06082      125.998 
-3.32402e-05      7.53717     -33.2947 
-1.74727e-06      4.99414      61.7672 
-4.25324e-06      7.39097      50.0083 
1.17885e-05      2.25887      27.6995 
7.99386e-06      8.41253     -48.4937 
2.58241e-06      6.72631      154.578 
3.36889e-06      6.45700     -23.1403 
8.70775e-07      4.51354      10.5319 
-2.55659e-06      5.27553     -89.1854 
-5.91972e-06      2.77511      89.4838 
9.09249e-06      2.01405     -105.848 
-8.67395e-07      3.70662     -115.787 
1.97052e-05      6.43083      157.123 
8.65847e-07      4.96558      124.850 
4.27059e-06      5.25394     -167.915 
7.56013e-06      3.42714      115.724 
-1.71147e-06      5.00006      61.6410 
8.55540e-07      5.67318     -22.2703 
-8.55090e-07      7.06817      126.080 
-3.35919e-06      3.71208     -115.961 
2.64984e-05      6.90802     -142.425 
1.68288e-06      3.61950     -146.694 
-5.78981e-06      5.30661     -122.005 
3.32114e-06      4.32048     -86.5167 
-1.68135e-06      5.01700      61.5832 
8.44388e-07      4.97274      124.968 
3.30507e-06      7.31250      36.8699 
8.41808e-07      1.42176     -150.505 
-8.40684e-07      7.05807      126.139 
1.68733e-05      5.26617     -167.943 
2.85443e-06      6.72041      154.436 
1.66391e-06      4.48306     -57.0632 
3.78850e-05      2.12592      1.68468 
-8.35037e-07      3.90082      132.792 
-3.27975e-06      3.66983      78.8049 
-4.88348e-06      3.93409     -46.1586 
-1.65494e-06      5.02296      61.4578 
2.45401e-06      4.97991      125.086 
-2.35725e-06      7.37294     -133.901 
-1.64120e-06      7.06545      126.221 
4.04328e-06      6.70914      154.390 
8.20745e-07      6.33810     -179.209 
-1.62617e-06      1.21405      16.7557 
-4.84903e-06      5.82303     -86.5541 
1.62081e-06      3.63681     -146.638 
6.93281e-06      1.43265     -150.751 
-1.62574e-06      5.02895      61.3327 
-6.12349e-06      7.39901      49.9342 
-1.38785e-05      2.77503      89.7419 
-2.38149e-06     0.867197     -15.0378 
-1.31836e-05      6.71996     -161.228 
7.09363e-06      3.42135      116.003 
1.60432e-06      4.61798      177.207 
-3.17180e-06      3.71757     -116.134 
8.10297e-07      4.52583      10.5030 
8.09949e-07      4.48987     -56.9293 
-8.08465e-07      5.26287     -89.3196 
6.33104e-06      2.26995      27.5528 
-8.05475e-07      3.77430      64.7080 
-6.31678e-06      5.28939     -121.962 
-1.58973e-06      7.07285      126.303 
8.00981e-07      7.32001      36.9482 
-1.87176e-05      3.77810      54.1538 
-3.15757e-06      5.03496      61.2079 
-3.92840e-06      4.11455     -27.1100 
6.83907e-06      4.31974     -86.6822 
-1.55513e-06      3.66742      78.9965 
7.95210e-07      6.44550     -23.1840 
5.41829e-06      2.99901     -146.906 
7.95322e-07      6.45882      151.947 
6.94926e-06      7.00505      37.0948 
2.53668e-05      5.72942      177.749 
-3.14293e-06      5.83477     -86.6840 
-1.03882e-05      4.71384     -178.632 
7.90744e-07      6.39185     -133.811 
0.000231416      6.36399      1.23803 
6.86795e-06      6.44780      151.895 
-7.65133e-06      3.68209     -78.8427 
8.09394e-06      6.09463     -166.961 
-3.05096e-06      7.17510     -49.7343 
7.82520e-07      5.88692      131.815 
-1.55220e-06      4.94907      67.5805 
6.71186e-06      6.00201      145.350 
1.55226e-06      2.00203     -105.945 
1.22239e-05      6.21744      169.458 
3.87308e-06      3.08043      27.2929 
8.94200e-05      5.60047      8.60032 
7.77771e-07      4.52087     -56.6175 
7.75853e-07      5.64917     -48.4086 
7.74306e-07     0.831133     -102.155 
-7.74437e-07      5.03992      61.4009 
7.72652e-07      4.98711      125.204 
-5.32332e-06      5.83551     -86.5615 
2.27860e-06      6.43896     -23.3300 
2.26413e-06      6.35060     -179.211 
-8.25312e-06      4.10343     -27.1895 
5.25108e-06      2.27576      27.8318 
-1.52178e-06      6.20798     -109.894 
1.49260e-05      5.27839     -167.972 
-3.03447e-06      5.04591      61.2763 
7.66010e-07      5.69195     -2.26546 
2.26007e-06      5.87859      131.725 
3.04977e-06      6.08815      13.2944 
-1.02595e-05      5.29602     -122.077 
1.33636e-05      3.09155      27.1867 
-7.63659e-07      7.09773      126.406 
2.25965e-06      2.00550     -106.289 
7.61625e-07      4.71548     -53.9503 
-7.60393e-07     0.855132     -15.2551 
1.51227e-06      4.64060     -78.6598 
-1.50501e-06      4.95385      67.4469 
-1.49287e-06      3.72309     -116.307 
2.65288e-05      6.07599      13.3215 
4.38628e-06      3.41589      115.815 
2.74237e-05      6.29119     -10.4169 
2.96418e-06      5.69246     -2.39118 
7.11781e-06      4.68623     -54.4446 
1.24629e-05      6.22973      169.479 
5.84945e-06      3.00949     -147.036 
6.53171e-06      6.99509      37.1566 
1.46152e-06      4.69351     -54.3204 
-2.19262e-06     0.839829     -14.6568 
2.20266e-06      6.69203      154.201 
7.47024e-07      5.65853     -48.4926 
5.81572e-06      1.98699     -21.3998 
7.44633e-07      7.37527      37.3554 
-2.94659e-06      5.05193      61.1519 
-5.11344e-06      5.84725     -86.6911 
-1.48080e-06      6.75700      19.6752 
3.11343e-05      6.41932      157.080 
-1.75001e-05      3.67970     -79.0336 
-6.44391e-05      6.71594     -161.329 
7.60361e-06      4.66453     -54.8193 
9.84570e-06      6.00130     -54.3236 
7.37600e-07      8.42082     -48.4300 
7.37624e-07      4.62590     -78.7812 
-7.35525e-07      7.10516      126.487 
-1.56214e-05      6.75280      19.5753 
7.13279e-06      6.90576     -142.280 
-8.51312e-06      5.77912      42.1070 
7.33282e-07      7.37293      37.4916 
-7.30745e-07      4.94713      67.2576 
-2.18227e-06      2.77500      90.0000 
2.82614e-06      8.07942     -139.706 
-5.68775e-06      4.09231     -27.2695 
3.55266e-06      4.62348     -78.9331 
7.26177e-07      2.00904     -106.631 
7.25091e-07      4.99432      125.321 
-7.24883e-07      6.80074      126.027 
-9.84634e-06      2.60039     -81.9867 
5.73897e-06      5.27580     -168.104 
-1.44111e-06      5.05798      61.0279 
-7.08446e-06      2.78753      89.7431 
1.61875e-05      3.10267      27.0812 
1.44010e-06      2.11309     -178.644 
-2.14012e-06      4.95197      67.1243 
3.51076e-06      8.42189     -48.5501 
7.18448e-07      4.70081     -54.1967 
1.74718e-05      6.21974      169.345 
7.16990e-07      6.43677      151.842 
-6.99318e-06      5.84798     -86.5688 
-7.14318e-07      6.79339      125.942 
2.81757e-06      5.97276     -71.4513 
7.14493e-07      2.28682      27.6856 
-7.19093e-05      6.36605     -1.91290 
1.41614e-06      6.42067      151.639 
4.88417e-06      6.42748     -23.3742 
4.85985e-06      5.99173      145.282 
-7.11149e-07      6.28371      95.9374 
8.89561e-06      2.11309      1.35586 
2.78369e-06      6.70329      154.247 
-2.11163e-06      5.06404      60.9042 
3.44092e-06      4.31903     -86.8478 
2.76166e-06      8.06989     -139.649 
4.87514e-06      6.36329     -179.100 
2.77063e-06      5.70495     -2.38594 
1.82760e-05      5.28803     -168.132 
-1.40484e-06      8.00783     -127.389 
5.51722e-06      1.44357     -150.994 
-3.46666e-06      6.26873      95.7220 
1.40060e-06      5.74143      177.879 
-7.03923e-07      3.71189     -116.392 
4.88393e-06      5.18788      174.331 
-4.16706e-06      3.78544      54.0004 
4.83136e-06      6.98513      37.2185 
1.44587e-05      3.01999     -147.165 
-1.39741e-06      4.95685      66.9911 
-6.99963e-07      7.18177     -49.5177 
-5.45997e-06      5.30267     -122.192 
2.42701e-05      5.57576     -171.361 
-1.27537e-05      5.77075      42.0149 
-1.38334e-06      4.72634     -178.636 
6.95399e-07      2.75964     -33.5461 
3.41840e-06      6.46986      28.0009 
2.73309e-06      6.40967      151.586 
-6.12101e-06      7.52672     -33.3470 
-6.11035e-06      7.67433     -128.121 
-1.37825e-06      4.96174      66.8583 
6.91412e-07      3.42174      115.535 
-6.91649e-07      3.95176     -46.1535 
1.28926e-05      5.20032      174.344 
4.75453e-06      2.76321     -33.1869 
-4.73949e-06      2.78750      90.0000 
-6.89001e-07      5.07013      60.7808 
2.03007e-06      5.75393      177.884 
3.33363e-06      4.60647     -79.2084 
-2.01384e-06      7.55584     -129.563 
1.81471e-05      3.11380      26.9765 
1.40864e-05      6.36349     -178.987 
5.99443e-06      3.41637      115.346 
-2.72904e-06      3.27865     -110.300 
3.11243e-05      6.43245     -23.4764 
-1.92509e-05      2.59868     -82.2597 
-1.36556e-06      3.96043     -46.0230 
6.83980e-07      5.96880     -71.5651 
6.83383e-07      7.38593      37.7814 
-2.70959e-06      3.79556      54.1114 
-1.35921e-06      4.96667      66.7257 
6.79569e-07      6.23202      169.366 
-5.33667e-06      6.74862      19.4754 
-6.78813e-07      5.07625      60.6576 
1.00400e-05      6.22206      169.232 
-4.01414e-06      5.84874     -86.4466 
6.76718e-07      5.98066     -71.6029 
3.32438e-06      4.67898     -54.5691 
-1.34916e-06      6.25385      95.5055 
1.34809e-06      8.08240      40.0438 
-3.82904e-06      4.08660     -27.1137 
3.99613e-06      5.71744     -2.38073 
-3.35008e-06      3.28301     -110.505 
5.99010e-06      1.45452     -151.232 
4.64286e-06      6.99270      37.3001 
-6.73349e-07      7.40706      49.8602 
-2.00690e-06      2.59750      99.4170 
-6.73757e-07      4.73884     -178.640 
-6.73432e-07      4.97162      66.5933 
7.92508e-06      6.06383      13.3487 
6.72652e-07      8.42301     -48.6701 
-1.99698e-06      3.96943     -46.1483 
6.72234e-07      6.41446      157.183 
-6.61704e-06      3.87744      87.9678 
-2.00090e-06      6.25266      95.3915 
3.98286e-06      8.09197      39.9869 
-6.70262e-07      4.97660      66.4613 
1.33045e-06      4.31837     -87.0134 
-7.15661e-06      3.80290      53.9588 
-8.50095e-06      3.67734     -79.2248 
-1.33128e-06      4.97520      66.1398 
-3.95864e-06      4.02492      153.435 
-4.60874e-06      4.84671      109.276 
1.37596e-05      5.21275      174.358 
-2.54286e-06      8.00024     -127.318 
6.63716e-07      6.28117     -10.5496 
-1.68777e-05      6.62600     -16.2126 
-6.63904e-07      5.08238      60.5348 
1.32191e-06      2.77368     -33.0455 
2.89787e-05      6.29346     -10.5288 
-6.62566e-07      7.68205     -128.194 
-3.94183e-06      3.28741     -110.709 
-6.61471e-07      5.70406     -84.2144 
-6.61445e-07      4.98027      66.0083 
3.25064e-06      6.73169      154.482 
7.78675e-06      8.09354      39.8622 
-5.85694e-06      7.67223     -128.252 
1.30791e-06      5.97673     -71.7166 
-6.58849e-07      6.25150      95.2774 
9.14069e-06      6.22441      169.119 
6.59119e-07      6.39868      151.532 
6.58205e-07      8.43240     -48.7262 
1.85246e-05      6.40781      157.036 
-1.96247e-06      4.98537      65.8771 
1.36171e-05      3.12495      26.8725 
-1.95978e-06      5.31991     -122.234 
3.26016e-06      4.99138      35.5210 
-6.56096e-07      6.23571      94.9449 
1.36189e-05      6.36373     -178.874 
-1.30872e-06      2.60783      99.1011 
2.06453e-05      5.57765     -171.234 
1.30566e-06      2.29789      27.5408 
-1.95229e-06      5.84953     -86.3244 
-5.84016e-06      8.62624      137.525 
-6.56046e-07      5.08854      60.4122 
-6.53955e-07      4.75133     -178.643 
6.53163e-07      6.01146     -54.3931 
-6.53085e-07      6.21631      94.1513 
1.29715e-06      4.31773     -87.1790 
1.94336e-06      8.07134     -139.774 
6.52086e-07      5.72992     -2.37554 
8.84143e-06      6.91793     -142.488 
-1.94938e-06      5.09634      59.9762 
6.51615e-07      2.77739     -32.6887 
-5.17359e-06      4.03053      153.276 
4.49169e-06      4.67174     -54.6940 
-8.33571e-06      5.78004      41.9320 
6.50949e-07      5.15443     -6.12537 
-1.26902e-05      4.07548     -27.1938 
3.22668e-06      1.46549     -151.468 
-5.16192e-06      4.85085      109.415 
-1.29736e-06      4.99049      65.7461 
-6.50595e-07      6.19962      93.5835 
-3.86815e-06      3.29185     -110.913 
4.48152e-06      6.91565     -142.343 
-1.27655e-06      5.70533     -84.0896 
1.29940e-06      5.16554     -5.97272 
-1.92805e-06      5.86122     -86.4542 
-2.56612e-06      6.74447      19.3752 
-1.26442e-05      3.88993      87.9743 
-1.29217e-06      6.19885      93.4682 
3.86764e-06      5.17797     -5.95833 
7.06429e-06      6.22678      169.006 
1.34221e-05      5.22519      174.371 
1.92850e-06      3.41103      115.156 
2.56669e-06      4.43882      94.5225 
-1.28250e-06      2.61824      98.7878 
-1.28856e-06      4.99564      65.6154 
1.92535e-06      6.06095      13.2338 
-3.18464e-06      5.32658     -122.347 
1.01888e-05      2.13783     -178.995 
1.28198e-06      6.01875     -54.2963 
6.96376e-06      6.05167      13.3761 
2.53556e-06      6.98276      37.3622 
-6.43713e-07      6.19811      93.3529 
6.43236e-07      6.08529     -166.820 
1.91089e-06      5.97282     -71.8305 
-1.20012e-05      2.59702     -82.5329 
-1.28220e-06      5.10260      59.8547 
5.09008e-06      5.00882      35.5543 
1.28152e-06      2.30898      27.3974 
-6.41844e-07      6.19739      93.2375 
5.06687e-06      5.30027     -168.160 
-1.28057e-06      5.00081      65.4849 
-8.84240e-06      3.68962     -79.2611 
-3.18733e-06      7.66450     -128.178 
-1.01013e-05      8.61780      137.587 
3.19177e-06      5.19041     -5.94400 
1.64897e-05      6.36399     -178.762 
1.26541e-06      4.59186     -79.3324 
1.13447e-05      8.10313      39.8056 
-1.27686e-06      6.19670      93.1221 
8.89231e-06      3.13050      26.5651 
2.54915e-06      5.35738      23.5146 
-5.69994e-06      4.02502      153.037 
-3.17519e-06      3.29633     -111.116 
-3.18252e-06      4.85502      109.555 
1.27119e-06      6.07599     -166.678 
6.29688e-06      6.74297      154.528 
4.44072e-06      2.28104     -152.592 
1.27200e-06      4.31714     -87.3447 
3.81596e-06      6.23905      169.028 
1.27237e-06      8.08089     -139.831 
-1.27329e-06      5.00601      65.3548 
-1.90160e-06      5.10889      59.7335 
-1.89959e-06      5.85035     -86.2022 
1.26914e-06      3.13611      26.7693 
-2.68971e-05      6.62252     -16.1088 
1.89377e-06      2.77066     -32.4712 
3.16720e-06      5.20284     -5.92975 
-1.27107e-06      6.19539      92.8913 
9.44781e-06      2.12559      1.34789 
-1.89806e-06      2.62872      98.4769 
5.68392e-06      5.36885      23.4613 
1.26595e-06      1.47648     -151.699 
2.06807e-05      5.59000     -171.254 
8.20209e-06      6.24144      168.915 
-6.33818e-07      5.01124      65.2249 
-5.62623e-06      7.51986     -33.2674 
1.26364e-06      4.45128      94.5098 
2.52695e-06      5.22644      174.235 
-1.89390e-06      7.66242     -128.309 
-3.15440e-06      4.87099      109.644 
3.13953e-06      3.03050     -147.293 
-1.26337e-06      6.19477      92.7758 
-1.89325e-06      5.01649      65.0952 
9.99235e-06      5.00156      35.4378 
-3.13020e-06      6.74033      19.2750 
-1.88487e-06      2.62690      98.2072 
1.88979e-06      5.21527     -5.91556 
8.15096e-06      2.15033     -179.001 
1.25593e-06      6.02605     -54.1998 
-5.01091e-06      5.78935      41.8493 
-3.76240e-06      3.30085     -111.318 
1.31407e-05      5.23763      174.385 
3.44920e-05      3.14168      26.4631 
-6.31060e-07      6.19418      92.6603 
6.88620e-06      2.29214     -152.736 
1.87993e-06      8.09045     -139.888 
-1.25591e-06      5.86201     -86.3322 
3.42822e-05      6.29576     -10.6406 
1.25462e-06      2.32009      27.2553 
6.28776e-07      4.31657     -87.5104 
-1.25479e-06      6.19361      92.5448 
-6.28445e-07      5.02177      64.9659 
2.50911e-06      5.22644     -5.76513 
-3.75154e-06      7.65468     -128.236 
-5.00030e-06      4.87521      109.782 
-2.50088e-06      5.11520      59.6125 
5.62760e-06      5.38032      23.4083 
4.48949e-05      6.36427     -178.649 
2.49869e-06      4.45032      94.3493 
6.27371e-07      6.06673     -166.536 
9.37515e-06      6.24386      168.803 
-3.74883e-06      4.01958      152.797 
-1.87251e-06      5.34383     -122.389 
6.26397e-07      5.96893     -71.9445 
-1.87597e-06      1.14237      113.199 
-6.26609e-07      5.02707      64.8368 
-6.26116e-07      6.19307      92.4293 
-2.50273e-06      1.34193     -64.6284 
7.47565e-06      6.03951      13.4035 
3.74763e-06      5.23887     -5.75140 
6.25107e-07      1.48750     -151.928 
6.24756e-07      6.05457     -166.509 
-6.25458e-07      5.03240      64.7080 
-1.87386e-06      6.19255      92.3137 
8.10006e-06      2.13841      1.67484 
-6.25298e-07      3.81027      53.8068 
1.49757e-05      5.30996     -168.320 
-3.74275e-06      6.28702     -7.19566 
-6.23894e-07      3.99578     -46.0140 
2.49012e-06      6.41270      156.933 
-1.24913e-06      5.03775      64.5794 
-4.35692e-06      4.99458     -66.7073 
-2.48854e-06      5.85119     -86.0801 
-6.90472e-06      2.63753      97.8997 
-1.24723e-06      1.13750      112.620 
-8.09433e-06      1.35860     -64.3780 
8.10383e-06      3.02678     -146.966 
2.48929e-06      2.33121      27.1146 
6.22575e-06      2.16264     -179.338 
-2.48858e-06      3.30542     -111.520 
1.75251e-05      6.75426      154.573 
4.35804e-06      5.25131     -5.73773 
-6.23501e-07      5.04853      64.3232 
2.49008e-06      6.24630      168.690 
-1.24506e-06      1.13275      112.036 
6.22833e-07      6.46758     -28.8933 
4.97445e-06      5.39179      23.3556 
-1.24483e-06      6.19206      92.1982 
6.22666e-07      6.14747      162.486 
-6.23073e-07      2.67255      72.5820 
-1.12351e-05      4.03070      152.879 
-5.01251e-06      3.78021     -127.476 
-5.60280e-06      8.60938      137.648 
1.92918e-05      5.25007      174.398 
7.48412e-06      8.11274      39.7491 
6.83699e-06      2.30326     -152.879 
3.72794e-06      6.47362     -28.9901 
-5.59862e-06      2.68448      72.6619 
1.30534e-05      6.25856      168.713 
-1.86662e-06      1.12812      111.448 
-6.22320e-07      5.05396      64.1955 
-4.35583e-06      4.87945      109.920 
-6.22371e-07      3.82036      53.9175 
-3.10786e-06      5.79770      41.9413 
-1.43784e-05      6.27461     -7.20996 
-1.06327e-05      6.73621      19.1746 
1.86618e-06      6.16316      162.410 
6.22234e-07      6.04535     -166.366 
-6.22167e-07      5.05941      64.0680 
7.46073e-06      2.13882      2.00955 
-1.24425e-06      6.19159      92.0826 
1.86456e-06      4.44939      94.1888 
6.21668e-06      5.26375     -5.72413 
-1.24238e-06      5.06489      63.9409 
-6.21421e-07      3.28921     -111.397 
-1.86560e-06      1.33610      79.2157 
-6.22212e-07      1.12361      110.854 
6.21586e-06      2.17514     -179.341 
-2.49789e-06      7.64486     -128.294 
-6.21627e-07      2.59543     -82.8065 
6.20468e-07      6.97283      37.4246 
-5.60649e-06      3.29379     -111.600 
-1.86530e-06      1.33662     -65.1126 
-1.68771e-05      1.34838      79.3151 
-3.11548e-06      1.35324     -64.8552 
-6.21404e-07      1.13530      110.630 
1.24365e-06      5.38685      23.2335 
-4.97649e-06      1.44357      119.006 
-3.75403e-06      4.98965     -66.8391 
1.24290e-06      6.03617     -166.223 
-6.20775e-07      6.19115      91.9670 
6.26435e-06      6.48456     -28.9366 
4.36487e-06      6.02735      13.4310 
-1.87024e-06      5.12154      59.4919 
2.51879e-06      5.59192     -171.127 
6.27578e-06      5.57957     -171.107 
-1.87776e-06      3.82774      53.7663 
1.19175e-05      6.73621      160.825 
1.00744e-05      5.39834      23.1812 
1.86698e-06      5.27496     -5.57549 
6.22474e-07      2.15232      2.66300 
2.00913e-05      6.26102      168.600 
-6.22096e-07      5.08148      63.5610 
6.22335e-07      6.08608      23.3531 
-6.21812e-07      5.45414     -122.743 
-3.74963e-06      4.83911     -178.520 
6.24943e-06      2.18764     -179.345 
-1.86946e-06      6.19073      91.8513 
6.22086e-07      1.50385     -152.796 
-6.22149e-07      1.31488     -65.8716 
4.36796e-06      5.27618     -5.71059 
1.87911e-06      8.50905      131.606 
-4.36979e-06      1.43755      118.571 
-6.23499e-07      1.28026     -99.5543 
1.24603e-06      2.16770      3.96792 
1.24853e-06      2.34234      26.9753 
-1.24671e-06      1.29337     -66.6560 
-1.87109e-06      1.27824     -99.0018 
7.52672e-06      5.59862      8.47384 
-1.51586e-05      6.61907     -16.0048 
-3.14696e-06      5.80700      41.8589 
3.13771e-06      2.31439     -153.020 
-1.26593e-05      6.36564     -1.80045 
1.87514e-06      2.18106      4.27278 
5.05902e-06      6.44392     -23.4321 
1.24978e-06      4.65734     -54.9450 
-6.25109e-07      5.08705      63.4349 
-1.25147e-06      1.12673      109.440 
-1.88253e-06      2.68823      72.4076 
-2.50379e-06      1.29259     -99.4623 
1.32645e-05      6.28580     -10.7736 
-1.51942e-05      3.02265     -11.4493 
5.02072e-06      5.28740     -5.56233 
5.66268e-06      5.26251      174.411 
6.25566e-07      5.01175      35.3549 
-6.25232e-07      1.25580     -67.7750 
1.25460e-06      6.02403     -166.194 
-4.39929e-06      1.44854      118.334 
1.88340e-06      2.18203      4.60010 
2.02797e-05      6.36457     -178.537 
-1.25568e-06      1.33141     -65.6006 
-1.25766e-06      6.19034      91.7357 
1.25649e-06      4.46096      94.0170 
-6.26763e-07      5.23774     -90.5470 
1.26121e-06      6.36574      151.372 
-6.33156e-06      1.29059     -98.9149 
4.40758e-06      2.20014     -179.349 
-6.27826e-07      1.34612      79.8379 
3.16167e-06      6.01519      13.4587 
-5.05064e-06      4.85161     -178.524 
3.16927e-06      5.97752      145.479 
-2.52986e-06      3.29841     -111.801 
-6.29030e-07      1.43162      118.131 
1.01510e-05      6.52563      167.162 
-6.28578e-07      5.85206     -85.9580 
1.89376e-06      2.42812     -35.5720 
-6.28834e-07      5.09266      63.3092 
3.80580e-06      6.01489     -166.050 
-1.89833e-06      1.23491     -68.6294 
6.30933e-07      2.43830     -35.4011 
-7.61972e-06      1.44265      117.897 
1.90030e-06      2.19449      4.57392 
6.31899e-07      5.28862     -5.69712 
-6.99785e-06      1.36066      79.4127 
-1.26644e-06      5.09828      63.1837 
1.89789e-06      2.20032     -179.023 
6.32560e-07      3.10267     -152.919 
5.09129e-06      5.29984     -5.54924 
6.32977e-07      4.65017     -55.0711 
-6.32840e-07      4.89976      110.145 
3.82191e-06      5.58626      8.49273 
1.27334e-06      4.46010      93.8568 
1.91447e-06      2.32554     -153.159 
1.27026e-06      2.21264     -179.353 
6.34061e-07      5.50205     -178.438 
6.34505e-07      3.11380     -153.023 
3.82708e-06      2.21282     -179.029 
-3.19030e-06      6.26221     -7.22432 
-6.34768e-07      2.70014      72.4877 
1.91239e-06      5.26375      174.276 
-3.82923e-06      4.86411     -178.527 
6.35835e-07      2.41797     -35.7443 
1.91608e-06      3.10815     -153.229 
-1.91338e-06      6.73212      19.0742 
1.27515e-06      6.49550     -28.8833 
-6.37865e-07      4.04183      152.959 
1.27729e-06      2.19552      4.89909 
1.91662e-06      6.59679      15.7217 
1.27787e-06      2.40783     -35.9180 
6.37698e-07      7.54886      32.5585 
-1.27982e-06      1.43685      117.457 
6.39116e-07      8.12236      39.6927 
6.40328e-07      2.22532     -179.034 
-6.41138e-07      5.10394      63.0584 
