! Center RA: 03 36 47.25835,  Dec: +00 35 13.65552 (2000.0)
! Established model.
! Flux (Jy) Radius (mas)  Theta (deg)  Major FWHM (mas)  Axial ratio   Phi (deg) T \
! Freq (Hz)     SpecIndex
0.00669125      0.00000      0.00000 
0.00202457    0.0125000     -90.0000 
0.00290545    0.0125000      0.00000 
0.000301198     0.309485      46.6366 
0.000151334     0.248118     -130.914 
0.000143483     0.267512     -127.405 
0.000275359     0.318689      48.1798 
0.000136130     0.277545     -125.838 
0.000252497     0.287772     -124.380 
0.000249359     0.328110      49.6355 
0.000336254     0.298172     -123.024 
0.000226059     0.337731      51.0090 
0.000488429    0.0279509      26.5651 
0.000105001     0.330009      52.6961 
0.000293096     0.302335     -119.745 
0.000282748     0.347536      52.3058 
0.000220288    0.0176777      45.0000 
0.000174143     0.340037      53.9726 
0.000254274     0.313249     -118.610 
0.000227543     0.357509      53.5308 
7.70500e-05     0.324278     -117.553 
0.000274034     0.318689     -115.560 
6.89056e-05     0.350223      55.1755 
0.000439588     0.367636      54.6888 
0.000402281      1.22046     -32.8763 
0.000503333      1.23098     -32.5604 
0.000161971     0.335410     -116.565 
0.000360042     0.375000      53.1301 
8.68568e-05     0.341184     -118.443 
3.86434e-05     0.358164     -119.249 
3.79311e-05      2.05130     -6.64865 
0.000105218      2.06231     -6.26349 
6.94134e-05     0.364434     -120.964 
0.000151167      2.07474     -6.22583 
0.000173546      1.20649     -34.0194 
3.11458e-05     0.371021     -122.619 
0.000131309    0.0176777     -45.0000 
0.000126105     0.377905     -124.216 
5.31017e-05      2.08585     -5.84726 
0.000482592      3.44751     -4.36684 
0.000131469      2.09829     -5.81248 
2.47864e-05      1.53200     -21.5410 
0.000153649    0.0250000      0.00000 
4.67760e-05      1.53913     -20.9373 
6.57069e-05     0.388306     -123.179 
2.20049e-05      1.20325     -34.8457 
2.14178e-05     0.360555      56.3099 
2.12485e-05      1.55081     -20.7723 
2.02842e-05      1.54364     -21.3706 
3.89064e-05     0.353774      57.9946 
3.85160e-05      2.10950     -5.44033 
1.95636e-05      1.19301     -35.1887 
1.92069e-05     0.398630     -131.186 
3.75732e-05      1.56250     -20.6097 
0.000171048    0.0375000      0.00000 
1.83993e-05     0.406971     -132.510 
1.80521e-05      2.22500      0.00000 
1.80179e-05     0.347311      59.7436 
5.05602e-05     0.415519     -133.781 
1.74699e-05      1.55528     -21.2028 
9.30698e-05      5.25467      170.829 
1.69248e-05     0.341184      61.5571 
1.67973e-05      1.57421     -20.4495 
6.01208e-05      1.19072     -4.21418 
1.65149e-05      2.21254    -0.323702 
3.15642e-05      2.12195     -5.40833 
1.57216e-05      1.56694     -21.0375 
3.07135e-05     0.424264     -135.000 
-1.52056e-05      4.50765     -3.33847 
1.50055e-05      1.57862     -20.8746 
1.49162e-05     0.335410      63.4349 
-2.87372e-05      4.49128     -10.7470 
-2.87278e-05      4.75533     -2.71198 
1.45424e-05     0.433193     -136.169 
2.81589e-05      2.14571     -5.01311 
-1.43867e-05      4.49517     -3.34775 
1.41099e-05      1.58592     -20.2918 
2.77568e-05     0.442295     -137.291 
-2.74265e-05      4.09760      175.977 
-2.67565e-05      4.48269     -3.35708 
2.63888e-05      5.26504      170.985 
-1.33539e-05      4.47900     -10.7768 
1.32300e-05      2.17514    -0.658543 
1.30490e-05      1.60200     -20.5560 
1.30158e-05     0.451560     -138.366 
7.28373e-05     0.812500      53.1301 
-7.72661e-05      2.34201      163.887 
1.36951e-05     0.488940      57.5288 
2.92394e-05     0.478441      56.7251 
-3.21949e-05      4.18841      178.803 
-5.76186e-05      5.29699      21.6005 
2.44839e-05     0.830004      52.9575 
4.77105e-05      1.30006     0.550904 
-1.67193e-05      4.17592      178.799 
4.21135e-06      1.39200     -26.1049 
4.13503e-06      1.42044     -24.9864 
-4.58479e-05      4.17620      178.628 
8.06085e-06      1.43178     -24.7751 
-6.66938e-05      2.33857      164.181 
2.28701e-05      1.18914     -176.987 
-4.45229e-05      3.88758     -16.6287 
3.93246e-06      1.44314     -24.5672 
3.87905e-06      1.46084     -23.7136 
2.87002e-05     0.805062      53.8418 
7.59268e-06      1.48377     -23.3254 
1.79195e-05      1.57877     -169.046 
7.47890e-06      3.26001      143.262 
4.31561e-05      3.25000      143.130 
-2.16373e-05      5.28537      21.6504 
7.37312e-06      1.49525     -23.1357 
-3.65583e-06      3.29284     -25.8841 
-3.62238e-06      4.19289     -177.095 
3.60738e-06      1.30000      0.00000 
4.89371e-05      1.17606     -177.563 
7.16547e-06      1.50676     -22.9489 
-3.97304e-05      4.20602     -176.934 
-1.03483e-05      3.28160     -25.9794 
1.35153e-05      2.09001     -6.86999 
1.03698e-05      1.51827     -22.7650 
1.33983e-05      1.31250      0.00000 
1.66844e-05      3.56090      141.843 
-2.63628e-05      4.18869      178.632 
-3.81695e-05      5.29000      21.7763 
-3.42346e-06      3.89956     -16.5761 
-5.44087e-05      3.89118     -16.8050 
6.65278e-06      1.52981     -22.5839 
6.34832e-06      1.59104     -169.131 
2.76811e-05     0.797751      54.5667 
-6.40575e-06      4.08427      176.139 
3.23409e-06      1.54136     -22.4054 
9.36744e-06      1.59344     -168.690 
-6.32570e-06      3.27037     -26.0754 
3.03567e-05      3.25255      143.438 
3.18616e-06      1.54823     -21.8014 
9.31849e-06      3.55108      141.718 
6.23693e-06      1.55985     -21.6309 
6.13910e-06      2.10242     -6.82924 
1.20350e-05      1.31256    -0.545658 
-9.05041e-06      4.08513      175.964 
-2.06810e-05      4.20119      178.636 
-9.09981e-06      1.35283      125.599 
6.02151e-06      1.57147     -21.4629 
-3.75510e-05      4.21919     -176.773 
-6.01662e-06      2.35060      164.264 
5.93906e-06      3.55884      141.560 
-5.85247e-06      3.23112     -26.6642 
-2.26837e-05      1.34559      125.166 
5.85160e-06      1.18855     -177.589 
-5.74180e-06      2.59750      170.583 
3.21775e-05      2.77855     -158.629 
-8.67505e-06      2.35402      163.971 
5.82626e-06      1.58311     -21.2974 
-3.03582e-05      5.29465      21.9019 
5.73414e-06      1.60570     -168.778 
3.46227e-05      3.54905      141.435 
2.87722e-06      1.23092     -34.6584 
-8.34813e-06      2.68078      162.917 
5.65395e-06      1.59477     -21.1342 
8.19868e-06      2.09154     -7.20996 
5.63512e-06     0.790569      55.3048 
-3.46259e-05      4.07356      175.777 
2.85924e-05      3.24512      143.616 
3.35654e-05      4.19363     -31.8425 
8.34082e-06      5.46683      172.907 
2.80839e-06      1.30024     -1.10171 
-1.34727e-05      3.21996     -26.7640 
2.83371e-05      1.17560     -178.172 
5.55019e-06      3.82969      5.43147 
-2.78100e-06      2.48923     -33.5305 
2.76050e-06      1.60643     -20.9735 
1.33628e-05     0.815188      54.3602 
-2.07786e-05      2.47882     -33.6901 
4.60426e-05      3.81608      5.26240 
-2.72967e-06      2.66883      162.838 
2.08508e-05      5.46530      173.038 
-5.00989e-05      4.24487     -176.624 
1.03291e-05      1.61797     -168.864 
5.37836e-06      1.61371     -20.4002 
1.74675e-05      1.20675     -13.1726 
-1.55490e-05      1.33843      124.729 
-1.26449e-05      2.33000      163.801 
7.75458e-06      1.62543     -20.2466 
5.22109e-05      2.79019     -158.723 
-9.97216e-06      3.20880     -26.8645 
-2.61170e-06      4.21369      178.640 
9.97810e-06      4.01762      141.062 
-1.24828e-05      5.28305      21.9525 
1.47175e-05     0.832635      54.1623 
-6.89048e-06      3.89481     -16.9811 
-2.28972e-05      2.69641      162.741 
-1.46846e-05      5.36741      23.7593 
5.00857e-06      1.63717     -20.0952 
-2.47456e-06      4.92019     -3.20405 
-1.20959e-05      1.33135      124.287 
2.11215e-05      1.21893     -13.0387 
1.67427e-05      2.61008     -163.301 
7.26851e-06      5.47621      173.183 
7.28791e-06      1.64891     -19.9460 
-7.14665e-06      3.88286     -17.0349 
-3.53613e-05      2.49615     -33.7696 
1.97088e-05      3.55686      141.277 
6.85352e-05      5.66338      178.988 
4.66988e-06      2.10394     -7.16724 
-1.11053e-05      4.21341      178.810 
2.26714e-05      2.80184     -158.816 
-6.81704e-06      2.31800      163.715 
-1.27266e-05      2.64294      171.295 
-6.93106e-06      5.27146      22.0032 
6.99511e-06      1.66067     -19.7989 
2.91019e-05      3.80251      5.09212 
8.89413e-06      1.63023     -168.949 
6.92907e-06      5.48716      173.328 
-3.77792e-05      4.94017     -1.88500 
1.57720e-05     0.850092      53.9726 
-1.36688e-05      1.32435      123.840 
-6.89442e-06      4.09766     -141.067 
-2.32281e-06      5.35597      23.8131 
-2.31786e-06      3.24793     -26.2692 
6.77221e-06      3.23506      143.484 
3.45783e-05      2.62205     -163.379 
-1.56275e-05      4.10552     -140.932 
-4.28456e-05      5.37246      23.8813 
6.40597e-06      4.00790      140.949 
-1.03829e-05      4.06204      175.588 
-2.27430e-06      2.96295     -30.1346 
-1.06339e-05      4.95227     -1.73570 
6.70269e-06      1.67243     -19.6538 
2.81346e-05      3.77055     -164.029 
-3.47478e-05      6.81542     -157.574 
-1.71508e-05      4.23167     -176.783 
2.24773e-06      5.47474      173.313 
6.40733e-06      4.18302     -31.9328 
-1.29562e-05      4.25735     -176.634 
1.49177e-05      5.48572      173.458 
8.19755e-06      2.11483     -6.78897 
-2.20075e-06      3.25915     -26.1719 
2.20004e-06      1.17527     -178.781 
-1.28063e-05      1.31743      123.389 
-2.19244e-06      5.25987      22.0543 
1.57384e-05      3.56662      141.403 
4.32028e-06      1.68421     -19.5108 
-3.26598e-05      4.11523     -141.041 
4.26542e-06     0.875000      53.1301 
8.19496e-06      3.22502      143.352 
-2.13485e-06      3.29867     -25.5940 
-2.11763e-06      5.26679      21.8772 
1.40565e-05      3.81496      5.07545 
-4.16245e-06      2.31453      164.012 
1.02798e-05      1.69600     -19.3698 
1.62250e-05     0.867558      53.7905 
-2.08653e-06      5.36103      23.9354 
-6.09827e-06      3.30995     -25.5006 
6.14271e-06      8.56505      44.5861 
2.68767e-05      3.80142      4.90446 
2.74603e-05      3.78257     -164.081 
2.90635e-05      5.82548     -179.262 
1.55275e-05      3.57640      141.528 
-1.19808e-05      1.30779      121.715 
2.89873e-05      3.45997     -4.35108 
1.17937e-05      5.49673      173.602 
-6.04024e-06      2.71207      162.567 
-2.14799e-05      4.24415     -176.792 
1.73967e-05      8.54738      44.5852 
-3.96691e-06      2.91981     -30.6272 
-2.01294e-06      2.48577     -33.9298 
2.28044e-05      2.62565     -163.118 
-1.10890e-05      2.63252      170.985 
-3.96553e-06      2.46843     -33.8510 
1.16298e-05      1.70779     -19.2307 
-3.84320e-06      2.32655      164.097 
-2.22063e-05      2.45805     -34.0133 
-1.26706e-05      2.72400      162.646 
3.06118e-05      4.88097      54.2747 
1.94663e-06      1.20059     -178.210 
1.85806e-05      2.77401     -158.870 
1.84217e-05     0.885032      53.6156 
3.26506e-06      3.58619      141.652 
1.92442e-06      1.50442      61.7315 
-1.91626e-06      3.32124     -25.4077 
-1.31034e-05      4.12496     -141.150 
1.09281e-05      5.48431      173.588 
-5.60204e-06      1.30126      121.247 
3.43991e-05      1.49854      62.1524 
2.65435e-05      4.88828      54.1557 
1.09904e-05      2.23764     -179.360 
-3.72574e-06      2.90906     -30.7526 
1.87902e-06      3.22250      143.041 
-1.87690e-06      3.34986     -24.9394 
9.21489e-06      1.71960     -19.0935 
-7.39011e-06      4.26983     -176.643 
3.70655e-06      7.69273      144.657 
2.12130e-05      5.00227     -159.980 
3.70855e-06      3.79459     -164.132 
-1.05616e-05      2.33519      164.476 
1.74923e-05      8.53848      44.6441 
1.83499e-06      1.21308     -178.229 
3.54301e-06      3.99820      140.837 
3.64233e-06      3.81004     -164.003 
-2.08958e-05      4.92811     -2.03503 
-1.88986e-05      6.80387     -157.534 
3.59911e-06      7.67961      144.473 
-7.19282e-06      4.14254     -141.124 
-1.81220e-06      2.89833     -30.8790 
-5.20913e-06      4.22567      178.983 
1.44761e-05      1.23111     -12.9074 
-1.22649e-05      4.25663     -176.802 
-3.57781e-06      3.36120     -24.8496 
-3.56493e-06      1.29482      120.774 
8.86911e-06      3.82206     -164.055 
8.86915e-06      1.73142     -18.9582 
3.37456e-05      3.81387      4.88840 
8.73282e-06      2.62931     -162.857 
-8.38307e-06      3.90676     -16.9275 
-1.76786e-06      4.28230     -176.653 
-2.19297e-05      4.15228     -141.232 
2.63254e-05      2.76236     -158.776 
-1.76428e-06      2.88761     -31.0063 
1.18066e-05      7.68979      144.527 
1.00120e-05      4.16760     -57.1202 
3.72455e-05      5.83816     -179.141 
-3.47343e-06      4.51930     -141.513 
-6.84216e-06      5.38389      23.8274 
8.56689e-06      2.23754     -179.680 
-3.41857e-06      4.37280     -176.066 
2.21223e-05      3.83408     -164.106 
8.49543e-06     0.902514      53.4475 
-3.43097e-06      1.29307      119.539 
9.35996e-06      3.23250      143.174 
-1.72550e-06      2.87690     -31.1345 
8.47187e-06      1.74325     -18.8247 
1.39209e-05      5.49535      173.732 
-1.15248e-05      2.44770     -34.1770 
-3.36923e-06      2.89407     -31.2184 
1.77360e-05      5.31463     -156.872 
-3.33828e-06      3.39008     -24.3915 
5.01279e-06      3.54527      140.867 
5.00142e-06      2.63302     -162.597 
-1.68856e-06      4.24347     -176.961 
-3.33257e-06      4.50174     -141.539 
-8.16409e-06      6.80303      147.303 
-9.65071e-06      4.39861     -175.926 
-6.48225e-06      1.28695      119.055 
-8.13598e-06      6.79252      147.246 
1.43561e-05      2.22504     -179.678 
4.90710e-06      5.01401     -160.029 
-4.89813e-06      4.21786     -177.112 
3.28938e-06     0.895126      54.0903 
1.41585e-05      8.52959      44.7031 
1.48106e-05      7.67672      144.343 
1.42273e-05      1.75508     -18.6930 
-7.99954e-06      2.34724      164.558 
-4.81382e-06      5.40038      23.8952 
-1.84627e-05      6.79232     -157.494 
3.06545e-06      3.53739      141.024 
-3.22647e-06      2.88338     -31.3471 
6.40250e-06      2.62110     -162.516 
9.52606e-06     0.912586      53.9149 
-6.26859e-06      4.49195     -141.440 
1.61394e-06      3.52591      140.611 
1.23516e-05      5.01829     -159.895 
-1.55583e-05      4.94060     -2.02989 
-4.22100e-05      4.17960     -141.313 
-3.13072e-06      4.23796      179.155 
-4.75411e-06      2.37056      25.6192 
1.59594e-06      3.52768      140.896 
1.33699e-05      5.67588      178.990 
-9.33420e-06      6.78879      147.100 
-4.71824e-06      4.20476     -177.274 
-9.04141e-06      2.43737     -34.3421 
-4.61288e-06      2.65530      171.336 
9.32736e-06      3.82633      4.87245 
6.18945e-06      3.51799      140.768 
-1.56692e-06      3.40147     -24.3045 
-6.19495e-06      2.35929      25.7505 
1.56479e-06      1.23807     -178.264 
7.69066e-06      1.51544      61.9553 
-1.79669e-05      3.89848     -17.1568 
1.62702e-05      2.62488     -162.255 
-1.55131e-06      4.23034     -177.121 
-7.49454e-06      1.28604      117.810 
-1.54599e-06      2.87272     -31.4768 
4.19200e-05      3.84610     -164.157 
1.00188e-05      4.17440     -56.9761 
1.65077e-05      5.50643      173.875 
1.78253e-05      3.83986      5.04245 
-3.01820e-06      3.41287     -24.2182 
7.54458e-06     0.930054      53.7462 
-1.33223e-05      4.21725     -177.282 
-6.07282e-05      6.79929      147.157 
1.68941e-05      5.32124     -157.049 
-5.96841e-06      2.35929      164.638 
-6.02377e-06      2.35389      25.4764 
3.03669e-06      2.21254     -179.676 
-7.41235e-06      3.03243      15.2965 
-1.51145e-06      5.41181      23.8416 
2.30358e-05      1.76693     -18.5631 
8.84775e-06      6.61222      15.7966 
1.59781e-05      1.52136      61.5398 
-1.50414e-06      2.86206     -31.6075 
8.79482e-06      2.21250      180.000 
2.95481e-06      3.50832      140.639 
-2.92962e-06      4.23780      179.324 
2.94134e-06      8.52071      44.7623 
-1.47698e-06      5.42324      23.7882 
5.81816e-06     0.940163      54.1967 
2.73140e-05      7.68688      144.397 
-7.24925e-06      2.33723      25.3316 
-8.45582e-06      4.48219     -141.340 
1.26487e-05      5.03003     -159.944 
-1.46619e-06      2.85143     -31.7391 
4.30232e-06      2.80638     -158.578 
-1.45320e-06      4.42445     -175.788 
-1.45116e-06      6.78077     -157.453 
-7.01387e-06      2.66581      171.642 
-2.85995e-06      5.43973      23.8555 
8.41287e-06      8.53839      44.7628 
4.24346e-06      3.20278      137.531 
7.06161e-06     0.957617      54.0276 
4.32552e-05      3.86588      5.19443 
-1.76087e-05      3.02037      15.3591 
-1.43341e-06      2.84080     -31.8718 
5.64719e-06      6.60882      15.6923 
1.22009e-05      1.24329     -12.7787 
4.23285e-06      2.20004      179.674 
1.42245e-06      1.23775     -178.843 
-4.18869e-06      1.28026      117.316 
-5.51395e-06      4.23767      179.493 
-4.21946e-06      6.79910     -157.631 
-6.90460e-06      2.42706     -34.5085 
2.80382e-06      2.94560     -158.334 
-2.79828e-06      3.42427     -24.1324 
-2.81696e-06      4.22973     -177.290 
1.54279e-05      4.87369      54.3940 
-1.40950e-06      2.83019     -32.0054 
-8.28853e-06      2.32059      25.1847 
-1.40574e-06      2.37135      164.718 
6.86558e-06      2.61298     -162.172 
-8.19545e-06      4.21667     -177.451 
-4.09928e-06      5.45116      23.8024 
1.08738e-05      6.49906      15.5064 
1.61221e-05      2.10535      175.914 
9.49536e-06      1.54434      60.9454 
8.04172e-06      1.77095     -71.0535 
2.70896e-06      3.99032      140.976 
4.09412e-06      2.97345     -158.288 
1.71074e-05     0.985203      54.2933 
4.04025e-06      3.24001      142.997 
6.71520e-06      5.68817      179.119 
-1.37477e-06      6.78755     -157.591 
-2.71538e-06      2.81960     -32.1400 
-1.19307e-05      1.05216     -103.046 
1.36031e-06      3.18512      137.545 
-2.70817e-06      6.85914     -158.063 
6.45258e-06      7.53320     -53.9097 
-1.35576e-06      2.38341      164.798 
1.42021e-05      2.61683     -161.911 
1.18241e-05      1.77878     -18.4349 
-3.05269e-05      2.67818      171.681 
1.03813e-05      8.52952      44.8219 
1.34285e-06      3.17591      137.393 
4.07238e-05      6.69231      18.0627 
-3.96645e-06      4.19717     -141.287 
1.33941e-06      2.96184     -158.199 
-8.95509e-06      4.49001     -141.216 
-1.33502e-06      2.30929      25.3167 
-3.95807e-06      6.85448     -158.160 
-1.32990e-06      2.80903     -32.2756 
6.47829e-06      5.04178     -159.993 
-1.32836e-06      4.41108     -175.938 
1.32754e-06      2.98970     -158.154 
-7.20527e-06      3.44204     -23.7723 
-2.03164e-05      4.25017      179.494 
8.86787e-06      3.15825      137.406 
3.84461e-06      5.30973     -156.996 
-2.62231e-06      2.43416     -34.7510 
2.13674e-05      6.47163      15.4589 
-8.95969e-06      4.22916     -177.459 
-5.14861e-06      5.47908      23.8165 
-3.83272e-06      1.28574      116.565 
-1.26230e-05      2.30397      25.0357 
1.03010e-05      1.56135      60.7672 
5.20455e-06      2.97810     -158.065 
-6.36031e-06      2.79847     -32.4123 
1.58105e-05     0.995380      54.7133 
8.83509e-06      4.32625      13.8756 
1.10821e-05      5.68838      178.993 
1.29462e-06      4.00004      141.089 
1.01162e-05      2.11697      176.276 
3.67674e-06      3.87947      5.36157 
-3.83393e-06      6.84984     -158.257 
1.28651e-06      4.18123     -56.8325 
1.23926e-05      1.78684     -70.8045 
6.29164e-06      1.25549     -12.6526 
-2.55056e-06      2.41677     -34.6764 
8.68185e-06      6.84846      131.078 
-6.15745e-06      4.20693     -141.393 
6.27256e-06      2.99437     -157.932 
-8.68871e-06      1.04940     -102.381 
-6.17586e-06      3.00502      15.1924 
9.83391e-06      1.79064     -18.3085 
-1.26614e-06      4.18937     -141.420 
3.63490e-06      4.19170     -56.9260 
-1.26301e-06      4.21613     -177.621 
-3.74678e-06      1.85506      127.333 
-4.58029e-05      2.51983     -46.4070 
1.25498e-06      4.85625      54.4280 
2.48664e-06      3.99220      141.228 
4.95899e-06      1.58454      60.1991 
2.47899e-06      5.70067      179.121 
-7.95364e-06      6.84522     -158.354 
9.21899e-06      5.05353     -160.041 
2.48197e-06      3.45905     -4.14462 
-3.68430e-06      2.40650     -34.8457 
-2.44534e-06      3.00832      15.4222 
1.24404e-06      3.62554      142.142 
2.47408e-06      4.45607      122.397 
-2.34740e-05      4.95267     -1.88025 
1.77410e-05      5.82534     -179.385 
3.59434e-06      2.72288     -158.736 
-3.66026e-06      5.49052      23.7638 
8.49688e-06      2.12867      176.634 
1.23217e-06      8.52066      44.8811 
-6.08232e-06      3.70584     -132.950 
1.07958e-05      2.62074     -161.651 
2.42529e-06      4.78076      125.851 
-1.22322e-06      1.85004      126.483 
-8.37504e-06      4.07103     -25.0700 
1.22129e-06      2.98279     -157.842 
-2.04918e-05      6.84062     -158.451 
-2.39274e-06      4.22862     -177.628 
7.13593e-06      8.53833      44.8814 
1.47228e-05      4.43882      122.347 
6.00926e-06      1.60161      60.0333 
3.51833e-06      5.30486     -157.121 
-9.34573e-06      4.47243     -141.240 
1.21472e-06      1.27525     -178.877 
-1.69781e-05      1.86267      127.639 
1.26685e-05      4.33838      13.8361 
2.39133e-06      3.01066     -157.801 
2.40189e-06      1.26769     -12.5288 
-2.32462e-06      4.25470     -177.306 
-1.49151e-05      2.99296      15.2551 
2.37927e-06      4.00195      141.340 
-9.23828e-06      2.29265      25.1679 
1.22523e-05     0.977960      54.8880 
4.72726e-06      2.99909     -157.711 
-4.62196e-06      4.24165     -177.466 
-1.19718e-06      2.42390     -34.9194 
-4.69440e-06      5.50196      23.7114 
6.97512e-06      4.06888      19.9380 
1.15299e-05      2.11620      176.614 
-4.74264e-06      3.69670     -133.082 
1.03574e-05      1.79865     -70.9355 
-3.54036e-06      1.05904     -101.575 
7.76831e-06      6.46831      15.3522 
-4.60426e-06      3.45349     -23.6888 
1.95230e-05      6.84025      130.999 
1.18485e-06      3.63542      142.263 
2.33797e-06      7.53596     -54.0425 
-6.20670e-06      1.85750      126.793 
1.18233e-06      5.04927     -160.174 
-3.50592e-06      4.21671     -141.499 
-2.28195e-06      4.42355     -175.949 
5.48512e-06      3.25752      142.954 
1.18105e-06      1.27506     -179.438 
3.51783e-06      1.61869      59.8710 
8.07623e-06      1.80252     -18.1837 
-6.92066e-06      2.41367     -35.0893 
1.68026e-05      6.45626      15.3816 
1.24976e-05      2.63261     -161.737 
1.17142e-06      4.78809      125.972 
5.69066e-06      5.07555     -161.922 
-5.77971e-06      3.68818     -132.940 
-4.70339e-06      6.83604     -158.549 
9.97079e-06      5.48293      173.718 
-5.75698e-06      4.07709     -24.8365 
2.26052e-06      3.14059      137.420 
-3.01432e-05      6.80979      147.214 
3.19276e-05      5.06367     -161.878 
7.86731e-06      5.68861      178.867 
-6.76784e-06      6.41752     -73.0121 
2.24666e-05      3.89192      5.34437 
1.15704e-06      1.62500      59.4898 
3.03174e-05      3.87833      5.17771 
-2.17503e-06      7.47652      55.0080 
2.29379e-06      3.99416      141.480 
-3.40093e-06      1.05660     -100.911 
2.29573e-06      1.63578      59.7120 
1.66243e-05      2.12798      176.970 
3.37031e-06      1.28756     -179.444 
1.10639e-05      3.01540     -157.581 
3.38407e-06      4.79544      126.093 
4.50557e-06      8.52948      44.9406 
-4.48712e-06      5.51341      23.6591 
1.14263e-06      2.62872     -161.996 
-1.14298e-06      4.23427     -141.472 
3.39141e-06      1.64212      59.3354 
-5.61183e-06      3.67904     -133.073 
-5.52823e-06      4.24406     -141.577 
1.13114e-06      5.06528     -160.089 
1.13001e-06      1.27989     -12.4074 
-9.76575e-06      1.34001     -143.344 
3.32021e-06      3.65173     -110.854 
-2.24663e-06      4.08236     -24.9957 
2.23345e-06      4.00394      141.592 
7.03652e-06      7.52862     -54.1195 
4.44706e-06      1.65925      59.1843 
1.12332e-06      3.67275      142.467 
1.96411e-05      4.05713      19.9982 
-6.57040e-06      2.40345     -35.2606 
1.39775e-05      1.79865     -17.8054 
-1.29458e-05      4.08844     -24.7629 
4.27558e-06      4.19853     -56.7830 
-2.18398e-06      1.87604      128.779 
1.11895e-05      7.69997      144.581 
9.67091e-06      1.81047     -71.0647 
-3.63688e-06      3.47142     -23.3340 
8.60821e-06      2.64448     -161.822 
-3.28645e-06      3.67051     -132.930 
-1.10160e-06      1.89679      130.724 
-1.09743e-06      4.46269     -141.140 
4.30611e-06      8.52064      45.0000 
1.09625e-06      1.28950     -11.7456 
-2.16533e-06      1.05431     -100.244 
-4.30292e-06      5.52486      23.6071 
-4.33634e-06      2.98090      15.3183 
7.00224e-06      1.67640      59.0362 
-2.16797e-06      2.28134      25.3014 
3.22259e-06      4.80281      126.214 
-4.15188e-06      4.25413     -177.474 
-5.34349e-06      8.16989      141.149 
1.08835e-06      2.70670     -158.886 
1.08899e-06      1.67000      59.4040 
4.24174e-06      3.99619      141.732 
3.22105e-06      2.64061     -162.080 
-6.34694e-06      2.70116      172.020 
-6.41235e-06      3.66137     -133.063 
-1.32508e-05      4.45486     -141.265 
-8.83427e-06      3.48290     -23.2526 
-6.23919e-06      6.42118     -72.9055 
-4.24655e-06      4.84273     -120.735 
-1.07715e-06      2.75638     -32.9694 
8.29495e-06      4.35052      13.7967 
4.94586e-05      1.68713      59.2546 
4.24162e-06      5.68887      178.741 
-3.18305e-06      4.26719     -177.314 
2.12323e-06      1.30006     -179.449 
1.06637e-06      3.13139      137.265 
-6.29414e-06      2.99627      15.4857 
2.80078e-05      2.11549      176.952 
1.42126e-05      5.07169     -162.056 
1.40201e-05      3.03173     -157.453 
-1.06272e-06      1.90804      111.523 
1.48649e-05     0.960550      55.0691 
8.95086e-06      3.64006     -110.925 
-1.06045e-06      2.39325     -35.4333 
-1.06120e-06      4.25386     -141.682 
1.05721e-06      3.73758      142.747 
5.13108e-06      6.23620     -104.036 
-5.15449e-06      1.91266      111.871 
-6.20664e-06      2.41069     -35.5031 
-6.02364e-06      2.27603      25.0169 
-1.05055e-06      1.06448     -99.4623 
-4.10311e-06      4.27142     -141.654 
-4.98739e-06      4.26266      179.496 
-9.24680e-06      3.65285     -132.920 
5.13917e-06      6.45295      15.2746 
1.41348e-05      2.65250     -162.163 
1.04233e-06      1.80646     -71.4397 
1.04097e-06      8.29130      45.6108 
1.04140e-06      1.30174     -11.6336 
-2.03155e-05      2.98423      15.5498 
-4.09684e-06      5.53632      23.5553 
-1.50147e-05      4.09979     -24.6897 
-8.02813e-06      8.17773      141.080 
2.05596e-06      1.31256     -179.454 
2.05000e-06      4.81021      126.334 
-3.07132e-06      4.83635     -120.608 
1.94615e-05     0.943150      55.2568 
7.21514e-06      2.71837     -158.981 
8.80611e-06      5.49400      173.861 
1.02838e-06      8.26488      45.6740 
5.07202e-06      1.82230     -71.1922 
1.27490e-05      1.70427      59.1083 
6.04213e-06      1.81056     -17.6844 
2.04335e-06      5.68916      178.615 
-2.04367e-06      1.06250     -98.7974 
2.03252e-06      3.12222      137.109 
3.03374e-06      4.44552      122.484 
-1.02462e-06      1.89015      129.903 
-2.03286e-06      7.37015      35.3343 
-2.56717e-05      2.52846     -46.2018 
2.02055e-06      8.55599      45.0000 
1.01953e-06      3.74754      142.863 
-6.93731e-06      2.71184      172.318 
1.01750e-06      3.84953     -163.978 
1.26787e-05      6.46501      15.2454 
-4.72835e-06      4.26279      179.328 
-1.04610e-05      1.34751     -142.918 
1.99305e-06      3.98846      141.873 
1.01058e-06      8.25615      45.7361 
-4.98103e-06      2.40052     -35.6764 
4.84023e-06      4.20539     -56.6406 
6.86489e-06      5.83783     -179.387 
-2.98237e-06      4.83000     -120.481 
3.92425e-06      3.83752     -163.926 
1.00120e-06      5.67698      178.486 
-1.16758e-05      3.63518     -132.910 
-3.93121e-06      5.54778      23.5037 
9.96608e-07      3.77502      142.940 
9.95424e-07      1.32506     -179.459 
1.97473e-06      4.81763      126.454 
-9.95616e-07      1.06066     -98.1301 
2.94477e-06      1.56774     -37.8750 
-5.84997e-06      1.91735      112.218 
6.24052e-06     0.925760      55.4516 
-9.30628e-06      4.73316      139.284 
4.82777e-06      3.11308      136.953 
-3.89492e-06      4.26662     -177.481 
-9.91486e-07      7.35995      35.3906 
1.97754e-06      1.79487     -17.4254 
1.97015e-06      8.24743      45.7983 
3.89827e-06      5.67733      178.360 
1.14514e-05      1.81831     -71.5651 
-9.89814e-07      6.67866     -156.506 
-5.70056e-06      6.42487     -72.7989 
-5.57060e-06      6.82031      147.271 
-7.45478e-06      4.28898     -141.627 
2.90814e-06      4.43498      122.570 
6.55625e-06      6.23924     -104.148 
3.87101e-06      4.36266      13.7575 
8.52387e-06      2.66062     -162.501 
2.60089e-05      6.83206      130.920 
9.80156e-07      1.31250      180.000 
7.49629e-06      4.04539      20.0587 
-4.78189e-06      4.82367     -120.353 
-1.94589e-06      2.39038     -35.8511 
-4.76446e-06      4.96516     -1.87551 
-1.93731e-06      7.34252      35.3676 
-1.33018e-05      4.43729     -141.290 
9.74435e-07      8.57367      45.0000 
-1.91893e-06      1.86502      127.100 
9.72819e-07      3.78500      143.054 
-1.93000e-06      1.05896     -97.4606 
2.49438e-05      1.80680     -17.3067 
1.90735e-06      3.26750      143.086 
4.72485e-06      5.06757     -161.744 
-9.68044e-07      1.87033      127.942 
2.15621e-05      3.03655     -157.235 
-9.66583e-07      6.65940     -156.081 
-9.66001e-07      2.41797     -35.7443 
-9.64113e-07      7.48676      55.0628 
2.86043e-06      1.32500      180.000 
6.48935e-06      6.55058      46.0051 
2.84363e-06      4.83511      126.485 
1.91705e-06      2.66441     -162.245 
1.90216e-06      8.22105      45.8625 
-6.52708e-06      8.18559      141.012 
-5.61663e-06      5.55924      23.4523 
-1.65181e-05      4.11115     -24.6170 
-3.78784e-06      2.40783     -35.9180 
1.90312e-06      3.81250      143.130 
1.36189e-05      5.82521     -179.508 
-1.88181e-06      1.86011      126.254 
9.53336e-07      8.58251      45.0590 
9.78726e-06      7.72335      144.818 
9.53040e-07      1.71501      59.3227 
9.51105e-07      1.57763     -37.5963 
1.87983e-06      1.93298      71.9166 
-1.87781e-06      7.33233      35.4241 
9.49042e-07      2.11487      177.290 
-9.49398e-07      6.64798     -156.038 
-8.14624e-06      2.73499      172.648 
1.26906e-05      6.19331      149.294 
-2.79908e-06      1.05741     -96.7890 
-3.89545e-06      6.82408      147.416 
-3.73080e-06      1.92212      112.563 
6.34205e-06      4.42827      122.434 
-9.42089e-07      2.72423      172.353 
5.44989e-06      1.58528     -37.9542 
1.86911e-06      5.67770      178.234 
2.78015e-06      4.37480      13.7186 
-1.03833e-05      3.62668     -132.765 
-1.04820e-05      6.83462      147.473 
2.74792e-06      5.03752     -160.126 
-9.37637e-07      1.92049      132.098 
-5.40928e-06      4.25360     -177.642 
6.28693e-06      3.82551     -163.875 
3.05001e-05      2.10301      176.934 
2.26916e-05      4.64089      96.3402 
9.33080e-07      3.83000      143.093 
-3.10887e-05      4.72369      139.185 
-8.18249e-06      2.39772     -36.0933 
9.31203e-07      8.21235      45.9250 
-2.75567e-06      6.63537     -155.753 
1.34303e-05      5.50511      174.005 
9.31185e-07      1.33750      180.000 
1.85479e-06      3.10395      136.795 
-2.75744e-06      4.81737     -120.224 
1.59811e-05      6.46174      15.1385 
7.24202e-06      2.67255     -162.582 
9.24500e-07      8.60019      45.0589 
1.54210e-05      2.73453     -158.831 
3.60709e-06      4.84255      126.604 
-2.72772e-06      1.93669      133.169 
1.83028e-06      3.84000      143.205 
-6.21353e-06      4.95309     -2.02477 
9.18799e-07      3.11253      136.627 
6.11934e-06      3.64454     -111.108 
-1.78654e-06      2.26471      25.1506 
3.53016e-06      3.27750      143.218 
2.68356e-06      1.91723      72.1557 
-1.81070e-06      7.32215      35.4808 
2.69677e-06      5.67810      178.108 
1.81323e-06      8.19467      45.9270 
-6.21182e-06      5.57071      23.4012 
1.45626e-05      1.83017     -71.6888 
-1.81117e-06      1.85561      125.403 
-1.80932e-06      1.05601     -96.1155 
5.16279e-06      4.21228     -56.4986 
-1.80604e-06      1.92695      112.906 
2.67462e-06      1.35000      180.000 
5.32870e-06      3.10345      136.469 
2.62389e-06      3.04808     -157.326 
3.55355e-06      4.38695      13.6799 
9.00765e-07      3.02019     -157.362 
-2.93881e-05      3.60902     -132.754 
1.59663e-05      4.06142      20.1639 
-5.28024e-06      4.81109     -120.096 
-7.80121e-06      8.19346      140.944 
-5.20358e-06      6.42857     -72.6925 
8.96611e-07      3.98075      142.015 
-1.77347e-06      2.97219      15.6144 
8.93305e-07      8.60904      45.1176 
8.90126e-07      3.85750      143.167 
8.66719e-06      2.66883     -162.838 
-8.90803e-07      1.06720     -95.3767 
9.08458e-06      5.05571     -161.699 
2.58470e-06     0.970824      55.4915 
-8.87391e-07      1.85152      124.548 
-1.28182e-05      2.98760      15.7808 
-5.89113e-06      6.62913     -155.610 
1.75765e-06      8.18598      45.9899 
-8.84862e-07      3.85827     -17.7305 
-1.76541e-06      2.41519     -36.1582 
2.72699e-05      6.82388      130.840 
-2.62987e-06      1.92537      113.736 
2.54539e-05      3.89077      5.16110 
-1.75761e-06      1.05475     -95.4403 
1.75040e-06      3.86751      143.278 
1.17656e-05      6.68845      17.9609 
-8.80045e-07      7.59615      124.135 
-7.99166e-06      5.71106     -58.6061 
-1.99565e-05      4.12252     -24.5446 
-1.73808e-06      1.85864      124.866 
-7.48790e-06      6.84516      147.529 
-5.17503e-06      2.40511     -36.3339 
-2.59611e-06      4.29878     -141.730 
-8.75181e-07      5.58218      23.3502 
8.73781e-07      6.55958      46.0809 
-1.73758e-06      7.31198      35.5377 
8.73553e-07      4.85002      126.722 
-1.58478e-05      7.58915      124.057 
-1.72696e-06      1.95356      134.222 
-1.44029e-05      2.47516      95.7970 
-1.73137e-06      4.25193     -134.166 
-6.34811e-06      2.97558      15.8462 
-5.02994e-06      4.26609     -177.649 
1.72280e-06      5.67852      177.982 
4.92252e-06      6.24231     -104.259 
3.41866e-06      1.36250      180.000 
8.67025e-07      8.62672      45.1174 
-4.20255e-06      2.74582      172.940 
-2.57655e-06      1.05364     -94.7636 
1.72017e-06      1.59516     -37.6781 
-1.44979e-05      4.80483     -119.967 
-2.55869e-06      1.93043      114.075 
2.43783e-06      7.53875     -54.1752 
5.07718e-06      6.20406      149.353 
5.02671e-06      4.42157      122.297 
-2.80465e-05      5.72174     -58.6713 
1.38695e-05      5.81262     -179.630 
-8.58909e-07      7.44062     -140.453 
-1.69883e-06      2.25877      25.5724 
3.34816e-06      4.40832      13.4452 
2.53381e-06      1.83414     -71.3181 
2.53001e-06      3.88501      143.241 
8.55382e-07      4.85750      126.840 
1.29536e-05      2.68078     -162.917 
1.70079e-06      3.09440      136.309 
2.19810e-05      6.45849      15.0314 
2.48665e-06      2.75071     -158.682 
-2.52266e-06      5.56576      23.2831 
-7.25029e-06      7.42302     -140.466 
8.47732e-07      5.03328     -160.260 
8.47322e-07      1.59300     -38.3087 
-4.19366e-06      2.43266     -36.2222 
-4.79576e-06      4.41972     -141.315 
-8.45330e-07      4.96558     -2.01967 
-2.47822e-06      4.25171     -134.404 
-7.25402e-06      7.30181      35.5947 
-7.39821e-06      4.71424      139.086 
-1.65277e-06      1.33756     -142.595 
-8.43295e-07      7.49392      54.9845 
3.29960e-06      3.81350     -163.822 
1.66697e-06      8.63558      45.1759 
-3.29143e-06      1.06514     -94.0377 
-8.40205e-07      1.96222      135.000 
5.70596e-06      1.60283     -38.0317 
8.39228e-07      3.28752      143.348 
-8.39127e-07      4.42948     -141.416 
4.91184e-06      7.11355      29.3578 
-1.66156e-06      1.85826      123.476 
-8.35127e-07      1.92942      114.905 
1.65504e-06      3.11207      136.302 
2.47345e-06      1.37500      180.000 
-6.29793e-06      4.95355     -2.16926 
-8.34498e-07      4.31634     -141.703 
-8.34044e-07      1.05268     -94.0856 
3.96273e-06      6.55092      46.1597 
3.23912e-06      7.71314      144.765 
8.33350e-07      5.66697      177.725 
4.10656e-06      5.43675     -136.025 
8.31548e-07      8.16831      45.9920 
-2.42507e-06      3.99384      174.432 
3.25977e-06      3.29756      143.478 
-3.27320e-06      6.85571      147.585 
-1.64682e-06      6.42414     -72.4465 
1.55867e-05      2.67713     -163.173 
-4.86915e-06      5.55428      23.3340 
5.65662e-06      3.10305      136.143 
-3.10764e-05      8.20134      140.876 
8.25427e-07      6.19769      149.452 
-8.25554e-07      4.26296      179.160 
-1.64038e-06      4.30654     -141.600 
2.41953e-06      5.02152     -160.212 
-5.60236e-06      6.43230     -72.5862 
7.76302e-06      8.16205     -128.783 
6.89774e-06      3.89503      143.351 
7.02673e-06    0.0450694     -123.690 
-8.24565e-07      1.93556      114.413 
-2.45237e-06      2.42258     -36.3969 
1.62881e-06      4.86501      126.958 
7.19251e-06      6.20846      149.511 
1.24551e-05      1.84598     -71.4424 
-1.59141e-05      2.48521      95.1944 
8.17772e-07      8.64445      45.2343 
-8.17188e-07      4.24297     -134.284 
-3.22605e-06      1.93472      115.241 
2.79922e-05      5.42776     -135.933 
3.12628e-06      6.47056      15.0027 
-8.12913e-07      4.00628      174.450 
6.26180e-06      3.05292     -157.109 
-2.67079e-05      7.34134      150.074 
8.11002e-07      5.66748      177.598 
8.10204e-07      4.31120     -64.7724 
7.45535e-06      1.69788      59.4703 
3.19072e-06      1.38750      180.000 
-1.60858e-06      2.59088     -35.3770 
1.59652e-06      8.15963      46.0552 
3.54699e-05      2.10238      177.274 
1.60078e-06      4.42048      13.4075 
2.34756e-06      4.21919     -56.3570 
-8.03854e-07      2.45013     -36.2853 
-2.37453e-06      2.75672      173.229 
3.87251e-06      4.41101      122.384 
8.00462e-07      5.66802      177.472 
1.80645e-05      6.68460      17.8590 
8.55673e-06      5.41908     -136.028 
3.90660e-06      4.31654     -64.6223 
-8.00625e-07      1.86870      123.265 
3.81421e-06      1.88961      72.2842 
-1.58161e-06      2.44006     -36.4590 
6.16685e-06      5.90621     -20.6980 
-2.34066e-06      4.24279     -134.523 
1.57445e-06      3.80150     -163.770 
-2.33109e-06      1.05186     -93.4064 
-8.41380e-06      5.54934      23.2155 
-1.57291e-06      2.58070     -35.5377 
-2.33243e-06      4.32410     -141.573 
3.86221e-06      3.30761      143.606 
-5.35588e-06      6.42792     -72.3402 
6.09841e-06      7.10266      29.4072 
-1.56320e-06      1.94008      115.574 
4.63777e-06      3.09405      135.982 
-1.27645e-05      2.48411      94.9073 
2.33812e-06      1.61269     -37.7581 
-1.35947e-05      4.13389     -24.4726 
1.55414e-06      7.70293      144.711 
-2.31387e-06      4.27911     -177.489 
7.83678e-07      5.65669      177.213 
-5.35792e-06      7.43589     -32.0871 
7.81787e-07      4.87253      127.076 
6.02436e-06      4.42976      13.2127 
-7.80710e-07      2.25295      25.9964 
7.80523e-07      8.65333      45.2926 
2.31562e-06      1.40000      180.000 
2.29570e-06      4.92781      53.7696 
2.26849e-05      5.82512     -179.631 
5.35663e-06      5.34353     -16.4425 
1.54479e-06      5.02576     -160.078 
7.77429e-07      8.15997      46.1793 
7.76758e-07      5.65731      177.087 
4.43727e-06      1.79452     -10.8403 
-4.57920e-06      3.88563      54.1623 
3.80856e-06      4.04969      20.2249 
-1.54169e-06      2.57054     -35.6996 
2.29702e-06     0.988212      55.3048 
-1.53649e-06      1.93427      116.068 
-7.70884e-07      4.42754     -141.189 
8.82207e-06      5.48157      173.847 
-1.52982e-06      2.76770      173.517 
7.71281e-07      3.78950     -163.717 
-7.69099e-07      1.35508     -142.496 
7.41602e-06      6.21924      149.569 
2.46556e-05      2.73004     -159.075 
3.00565e-06      1.62038     -38.1076 
5.14866e-06      5.47473     -71.7719 
-4.09408e-06      4.29160     -177.496 
1.52709e-06      5.65796      176.961 
4.37183e-06      6.24540     -104.370 
1.04693e-05      8.15423     -128.715 
3.77010e-05      6.43489     -8.60231 
1.51329e-06      1.78466     -11.3099 
-2.26801e-06      4.58673     -80.5890 
-7.63512e-07      2.56040     -35.8628 
-7.62906e-07      4.40215     -141.340 
7.63289e-07      8.15096      46.1184 
1.51552e-06      3.77750     -163.664 
2.98180e-06      6.45525      14.9243 
2.81767e-05      3.88967      4.97772 
-7.60355e-07      5.30212      20.9987 
-2.87940e-06      3.99508      174.254 
7.34304e-06      4.31063     -64.4009 
-7.58234e-07      1.93980      116.400 
-4.41435e-06      4.40997     -141.213 
-5.07487e-06      4.27858     -177.656 
-4.42224e-06      7.29165      35.6519 
2.98807e-06      5.33154     -16.4805 
1.64583e-05      2.69273     -162.995 
1.50977e-06      1.81874     -17.1896 
1.48361e-06      8.66222      45.3508 
-7.54631e-07      2.24726      26.4225 
1.48795e-06      1.41250      180.000 
1.64758e-05      6.46733      14.8957 
-2.21131e-06      2.58798     -35.7629 
2.24271e-06      5.65864      176.834 
-7.53480e-07      1.36502     -142.815 
1.50162e-06      4.63952      96.1868 
2.23641e-06      3.08507      135.821 
-8.58433e-06      5.31379      20.9504 
6.30880e-06      2.68910     -163.250 
-7.51259e-07      1.88435      121.159 
-7.49744e-07      2.59814     -35.6018 
6.47777e-06      3.31768      143.735 
1.49085e-06      8.15132      46.2427 
1.48902e-06      3.76551     -163.610 
1.48884e-06      1.80624     -175.236 
-2.21377e-06      4.23388     -134.641 
-1.61589e-05      3.91042      53.9726 
8.73647e-06      1.82247     -17.5650 
5.14782e-06      1.85784     -71.5651 
-1.27115e-05      3.59135     -132.743 
-7.45048e-07      1.93423      116.896 
3.66729e-06      4.06575      20.3293 
-2.74534e-05      2.49456      94.3106 
-8.37891e-06      4.79860     -119.837 
7.44105e-07      1.00561      55.1247 
-2.18646e-05      4.59907     -80.6145 
7.42814e-07      5.64686      176.701 
-7.42623e-07      6.43606     -72.4800 
-9.28667e-06      7.42531     -32.1383 
4.99584e-06      4.93521      53.6525 
3.65059e-06      5.89895     -20.8545 
2.87489e-06      6.53324      46.1628 
-5.03084e-06      6.80897     -69.1362 
1.58451e-05      7.10881      29.4950 
-1.47218e-06      4.36701     -141.391 
3.62247e-06      3.75352     -163.557 
-4.76374e-06      7.40542     -140.479 
-1.46655e-06      1.92881      117.395 
7.01630e-06      4.65195      96.1702 
7.35866e-07      5.31955     -16.5187 
-7.35678e-07      2.77874      173.802 
-3.61803e-06      6.43172     -72.2341 
-9.11799e-06      5.53293      23.1476 
1.45343e-06      1.01589      55.5278 
2.18139e-06      3.07612      135.659 
7.33060e-07      8.08777      45.4383 
9.84727e-06      5.64759      176.574 
5.04328e-06      5.34000     -16.3139 
-7.30600e-07      7.50110      54.9063 
-8.77891e-06      2.57785     -35.9252 
3.57111e-06      1.63023     -37.8365 
2.15892e-06      1.81870     -175.269 
7.29394e-07      4.44193      13.1759 
1.44342e-06      1.87771      72.1681 
-4.26123e-06      4.39239     -141.238 
6.40559e-06      1.87367     -71.3233 
-7.25444e-07      1.89942      120.446 
7.22525e-07      8.15173      46.3669 
1.53702e-05      8.14641     -128.646 
-1.51703e-05      4.14527     -24.4011 
-7.20527e-07      1.93459      117.724 
7.18374e-07      1.42500      180.000 
6.29050e-06      5.32801     -16.3516 
2.72581e-05      6.68078      17.7569 
9.56072e-06      4.05403      20.3906 
7.16388e-07      5.02907     -160.394 
7.54227e-06      4.43910      13.0188 
7.16171e-07      8.07887      45.3761 
2.12816e-06      1.83115     -175.301 
-2.80884e-06      1.92942      118.225 
2.81729e-06      3.06719      135.495 
-2.10766e-06      4.23381     -134.880 
7.11285e-07      7.59281      45.4669 
7.11225e-07      3.66983     -111.584 
1.42028e-06      5.91064     -20.8113 
-1.40730e-06      2.78985      174.085 
6.86488e-06      6.23002      149.628 
-6.14604e-06      7.28149      35.7092 
-7.09999e-07      2.26964      26.8473 
7.09546e-07      4.40433      122.247 
1.41371e-06      3.74153     -163.502 
5.53665e-06      7.58405      45.5342 
8.95362e-06      1.83818     -17.8189 
1.39654e-06      8.14357      46.5549 
4.84464e-06      4.30479     -64.1790 
2.77437e-06      1.87392      72.5320 
-1.90737e-05      4.70606      139.201 
2.07525e-06      1.03327      55.3487 
-8.49468e-06      6.43555     -72.1281 
1.39939e-06      1.81681     -10.3048 
7.04234e-07      8.67112      45.4088 
4.79653e-06      1.88953     -71.0856 
-7.02647e-07      1.37500     -143.130 
5.48745e-06      5.90342     -20.9678 
7.00759e-07      1.80680     -10.7658 
7.00690e-07      5.47050      173.703 
2.07840e-06      5.60135     -153.492 
-6.98921e-07      4.37482     -141.263 
2.06874e-06      3.72955     -163.448 
6.73882e-06      6.37212     -3.14866 
-7.83061e-06      7.58215      123.978 
4.06638e-06      1.81771     -175.662 
-1.38224e-06      1.92439      118.729 
2.79201e-05      2.09053      176.915 
5.90845e-06      5.48660     -71.8127 
6.93378e-07      1.41256      179.493 
-9.22443e-06      6.81343     -69.0380 
4.05407e-06      1.64012     -37.5686 
3.51434e-05      5.83771     -179.509 
8.79823e-06      4.40046      122.471 
3.41354e-06      3.05829      135.331 
1.16815e-05      5.64835      176.447 
-6.89338e-07      6.47845     -158.137 
4.72304e-06      2.74619     -158.925 
-7.91653e-06      6.44133     -68.3638 
-6.86427e-07      4.22496     -135.000 
1.99729e-06      1.82910     -10.2348 
2.26487e-05      6.46413      14.7887 
-2.03997e-06      6.46220     -158.199 
-1.17298e-05      7.41866     -32.0565 
9.98220e-06      5.31601     -16.3895 
4.59985e-06      4.91773      53.6835 
4.59723e-06      1.91723     -70.9744 
-3.33048e-06      4.40023     -141.111 
2.60174e-06      3.32777      143.862 
2.02772e-06      5.45808      173.689 
2.01484e-06      1.81908     -10.6922 
-2.68626e-06      4.23381     -135.120 
4.00176e-06      8.13861     -128.577 
6.79934e-07      8.66235      45.4677 
-2.62957e-06      2.80103      174.366 
-1.27742e-05      7.34759      149.989 
1.33690e-06      1.42505      179.497 
3.98726e-06      5.59017     -153.435 
1.33651e-06      8.05230      45.3145 
1.97635e-06      6.52459      46.2420 
-6.76873e-07      2.28104      27.4076 
-2.60788e-06      1.94044      118.051 
6.75611e-07      3.14059      42.5805 
-1.93233e-06      6.43230      40.0337 
1.33711e-06      3.67445     -111.765 
2.00830e-06      4.31025     -64.0294 
2.00588e-06      3.71757     -163.393 
-1.93412e-06      2.99103      16.0112 
6.72452e-07      8.13549      46.7432 
1.08337e-05      3.15825      42.5940 
-1.33527e-06      6.44595     -158.260 
3.93536e-06      7.60173      45.5330 
-3.28528e-06      1.93536      118.551 
2.66042e-06      3.04941      135.166 
-1.33614e-06      4.59704     -80.7682 
5.94053e-06      1.85392     -18.0685 
6.92552e-06      1.96087     -70.6410 
1.51869e-05      5.90790     -21.0810 
5.16838e-06      4.65062      96.0171 
1.97172e-06      1.69355      58.8912 
-1.32554e-05      8.74536     -136.680 
-3.16704e-06      5.32547      20.9023 
1.88542e-06      1.94495     -70.8664 
-6.65351e-07      3.98391      174.057 
4.53599e-06      6.24081      149.686 
3.90766e-06      5.44705      173.544 
-2.55924e-06      2.97902      16.0775 
3.26140e-06      4.30452     -63.8070 
1.31864e-06      6.36672     -113.243 
6.60516e-07      1.86200      72.4165 
1.94791e-06      1.90136     -71.2077 
-1.97178e-06      6.42972     -158.323 
1.29452e-06      3.87754      143.389 
6.58613e-07      7.57530      45.6017 
-1.31160e-06      4.22500     -135.240 
6.56978e-07      3.70559     -163.338 
5.67314e-06      1.83017     -175.691 
3.88927e-06      3.04056      135.000 
-2.57360e-06      3.97280      173.859 
-6.56654e-07      5.51652      23.0793 
-5.14377e-06      4.15666     -24.3299 
6.54440e-07      8.12693      46.8074 
2.59609e-06      6.37167     -113.346 
-7.50302e-06      4.23388     -135.359 
-1.29271e-06      7.26405      35.6867 
4.43610e-06      1.65005     -37.3039 
1.94088e-06      3.87615      4.80967 
-1.29791e-06      6.41349     -158.385 
-6.50086e-07      5.32994      21.0279 
1.27387e-06      7.55066     -53.8889 
1.93674e-06      5.30402     -16.4276 
6.49353e-07      6.45205      14.8170 
-8.68640e-06      3.93526      53.7853 
2.57334e-06      3.69362     -163.282 
1.87945e-06      4.94262      53.5358 
1.28958e-06      1.85008      72.2996 
1.93133e-06      1.83137     -10.6197 
-1.90178e-06      4.40809     -140.985 
6.37007e-06      1.85784     -18.4349 
8.66772e-06      5.60694     -153.378 
6.23257e-06      4.43630      12.8615 
-9.17394e-06      4.15045     -24.5582 
-6.77921e-06      7.25390      35.7443 
-6.45599e-07      2.30370      27.8165 
2.55662e-06      5.30050     -16.2980 
1.27633e-06      8.11838      46.8717 
3.81098e-06      7.11497      29.5826 
-6.43501e-07      5.34161      20.9798 
-2.55375e-06      6.39727     -158.448 
4.32080e-06      7.59298      45.6003 
3.13679e-06      4.05840      20.5560 
1.23112e-05      3.88861      4.79423 
4.89543e-06      3.17591      42.6074 
3.17712e-06      6.36516     -113.494 
-1.27063e-06      5.52144      23.1986 
1.27258e-06      2.66517     -163.095 
1.27675e-06      6.47847      30.6225 
7.34625e-06      6.37144     -3.03642 
3.15514e-06      4.29886     -63.5840 
6.38482e-07      2.67354     -163.429 
6.38501e-07      4.04232      20.4524 
1.27034e-06      1.68286      58.6713 
6.38610e-07      8.04342      45.2518 
-6.37275e-07      2.59531     -35.9868 
3.14667e-06      3.03173      134.833 
-1.26542e-06      6.44595     -68.2605 
3.14751e-06      6.48923      30.5663 
3.13697e-06      2.66156     -163.352 
6.25292e-06      5.28850     -16.3360 
5.56341e-06      5.42363      173.383 
7.96365e-06      3.68165     -163.226 
6.32214e-07      1.84141     -10.1657 
1.87365e-06      1.83818      72.1811 
6.17348e-06      6.25160      149.744 
-1.25796e-06      6.36029     -158.680 
1.24468e-06      3.67910     -111.946 
3.01102e-06      1.97266     -70.7614 
3.04180e-06      6.51595      46.3214 
3.70854e-06      1.84365     -10.5481 
-1.86360e-06      1.94635      118.376 
3.71914e-06      6.37016     -113.597 
-2.48566e-06      6.34410     -158.744 
6.16519e-06      1.86970     -18.3138 
2.45385e-06      1.81681     -176.055 
-1.84777e-06      3.96173      173.660 
4.29338e-06      2.71391     -159.228 
-4.85375e-06      5.36722      2.40261 
2.43859e-06      3.88758      143.499 
6.22731e-07      8.11898      46.9964 
-4.26259e-06      7.91968     -44.7442 
-6.65994e-06      6.44366     -68.0128 
2.44921e-06      3.04141     -157.018 
4.29794e-06      6.50000      30.5102 
-4.84852e-06      6.81791     -68.9399 
-4.24661e-06      8.20924      140.809 
6.66267e-06      7.12584      29.5330 
-6.03781e-06      7.40807     -32.1079 
1.23714e-06      4.30443     -63.4349 
5.48078e-06      3.02293      134.665 
-3.04066e-06      5.54766      127.309 
4.87806e-06      5.27651     -16.3742 
6.18882e-07      2.63403     -163.457 
-2.45280e-06      6.32793     -158.808 
1.26606e-05      6.46095      14.6815 
-6.18522e-07      4.30465     -177.337 
-1.22783e-06      6.03015      24.4931 
2.41122e-06      3.02503     -157.143 
6.16931e-07      2.65321     -163.016 
-1.83158e-06      6.43939     -72.0223 
1.86485e-05      5.85033     -179.388 
-6.16367e-07      7.78465     -39.7231 
6.17111e-07      1.82928     -176.082 
3.04839e-06      5.66007      176.582 
1.83207e-06      8.11046      47.0610 
-4.85038e-06      7.79427     -39.6644 
1.22516e-06      2.64959     -163.275 
2.41207e-06      1.06095      55.5610 
-6.13998e-07      4.39051     -141.009 
2.42930e-06      4.29887     -63.2114 
6.12600e-07      1.67220      58.4486 
-6.12108e-07      2.37135      28.3212 
1.20802e-06      1.65765     -37.6476 
-6.11551e-07      2.81228      174.644 
1.22055e-06      3.73549      39.9774 
1.21090e-06      4.64933      95.8639 
2.42019e-06      6.62006      53.3681 
8.37621e-06      1.87367     -18.6767 
6.59404e-06      5.45443     -136.021 
3.61321e-06      6.37517     -113.700 
-2.40158e-06      7.57518      123.900 
-4.20522e-06      4.71553      139.300 
6.57249e-06      5.26452     -16.4126 
1.21328e-06      1.82628      72.0611 
1.81016e-06      2.64126     -162.937 
-2.39662e-06      7.39748     -140.554 
-1.20451e-06      2.99450      16.2411 
3.59481e-06      1.66001     -37.0425 
-1.20798e-06      4.39838     -140.882 
-3.00899e-06      6.31176     -158.873 
6.05853e-07      8.02574      45.2524 
2.39568e-06      1.85594     -10.4774 
-2.40416e-06      2.49553      94.5968 
-1.79272e-06      8.09912      138.065 
4.19398e-06      6.51077      30.4544 
1.19720e-06      4.04670      20.6182 
1.20608e-06      2.63762     -163.197 
1.80021e-06      3.76269      39.8787 
5.96830e-06      2.69780     -159.382 
-1.20281e-06      1.95148      117.878 
1.20138e-06      4.97502      53.2741 
-6.02497e-07      2.38829      28.4429 
-6.01966e-07      7.82149     -39.6180 
-1.19555e-06      4.23403     -135.598 
-1.79302e-06      6.01877      24.5424 
-2.98660e-06      8.15043     -38.9617 
2.97485e-06      6.26240      149.801 
2.97352e-06      5.66083      176.455 
3.57012e-06      5.91241     -21.1941 
-3.56476e-06      8.73679     -136.739 
1.19236e-06      5.41267      173.236 
-5.98445e-07      4.79239     -119.708 
-5.97801e-07      2.82359      174.920 
-2.37373e-06      5.70456     -58.7133 
-5.97717e-07      5.44778      142.552 
1.77903e-06      6.61261      53.4550 
5.96739e-07      4.42412      12.8975 
1.18662e-06      1.82247      72.4350 
5.95899e-07      3.89023      143.756 
-1.18973e-06      6.38328     -158.157 
-5.96266e-07      3.95071      173.460 
1.77806e-06      3.01416      134.496 
1.18476e-06      4.42134      12.7396 
5.94135e-07      4.29338     -62.9873 
5.94199e-07      8.10195      47.1257 
1.18321e-06      3.66968     -163.170 
-5.93560e-07      2.40524      28.5629 
1.18228e-06      3.77229      39.7570 
-5.92395e-07      7.80390     -39.6058 
-5.91813e-07      6.31627     -158.767 
-5.91596e-07      4.24297     -135.716 
-5.91091e-07      2.49656      94.8828 
-1.18117e-06      8.16801     -38.9748 
5.90699e-07      1.80434     -176.028 
5.90490e-07      6.36500     -149.557 
5.90175e-07      4.28260     -62.5374 
5.90739e-07      6.38021     -113.803 
1.17898e-06      6.52155      30.3987 
5.89980e-07      5.49848     -71.8534 
-5.89876e-07      4.37293     -141.033 
-5.89018e-07      1.95736      118.202 
5.89133e-07      3.89764      143.608 
5.88245e-07      4.50904      10.2196 
-5.88194e-07      5.55006      127.128 
